# wavelength (A)  flux density (erg/cm2/s/A)
       2500.4622  1.11430e-13
       2501.8357  9.87660e-14
       2503.2092  1.03290e-13
       2504.5828  1.05700e-13
       2505.9563  8.75390e-14
       2507.3298  8.55720e-14
       2508.7034  9.68900e-14
       2510.0769  9.51430e-14
       2511.4504  8.78300e-14
       2512.8240  8.20460e-14
       2514.1975  7.10320e-14
       2515.5710  6.29380e-14
       2516.9446  6.10220e-14
       2518.3181  6.34440e-14
       2519.6914  6.78040e-14
       2521.0649  7.40210e-14
       2522.4385  6.43490e-14
       2523.8120  5.94240e-14
       2525.1855  6.54420e-14
       2526.5588  6.68570e-14
       2527.9324  6.24500e-14
       2529.3059  6.55780e-14
       2530.6792  8.25050e-14
       2532.0527  9.03140e-14
       2533.4263  9.04260e-14
       2534.7996  8.94360e-14
       2536.1731  8.84300e-14
       2537.5464  8.91580e-14
       2538.9199  9.19400e-14
       2540.2935  9.38630e-14
       2541.6667  9.54700e-14
       2543.0403  1.00870e-13
       2544.4136  1.03770e-13
       2545.7869  9.90330e-14
       2547.1604  9.75600e-14
       2548.5337  9.48010e-14
       2549.9072  1.02400e-13
       2551.2805  1.34410e-13
       2552.6538  1.48100e-13
       2554.0273  1.55610e-13
       2555.4006  1.53420e-13
       2556.7739  1.52610e-13
       2558.1472  1.62000e-13
       2559.5208  1.69590e-13
       2560.8940  1.63760e-13
       2562.2673  1.40020e-13
       2563.6406  1.42780e-13
       2565.0139  1.72660e-13
       2566.3872  2.03410e-13
       2567.7605  2.09700e-13
       2569.1338  2.27610e-13
       2570.5071  2.41130e-13
       2571.8804  2.41410e-13
       2573.2537  2.50660e-13
       2574.6270  2.11580e-13
       2576.0002  1.66630e-13
       2577.3735  1.88140e-13
       2578.7468  2.36790e-13
       2580.1201  2.77290e-13
       2581.4932  2.72450e-13
       2582.8665  2.40580e-13
       2584.2397  2.02090e-13
       2585.6130  1.58290e-13
       2586.9861  1.78350e-13
       2588.3594  2.29160e-13
       2589.7327  2.72360e-13
       2591.1057  2.38970e-13
       2592.4790  2.04520e-13
       2593.8521  1.82500e-13
       2595.2253  1.85990e-13
       2596.5986  1.69970e-13
       2597.9717  1.25890e-13
       2599.3447  1.08190e-13
       2600.7180  1.39710e-13
       2602.0911  1.79970e-13
       2603.4644  1.84840e-13
       2604.8374  1.62550e-13
       2606.2104  1.31980e-13
       2607.5837  1.28700e-13
       2608.9568  1.45840e-13
       2610.3298  1.46550e-13
       2611.7029  1.20850e-13
       2613.0759  1.18950e-13
       2614.4492  1.44560e-13
       2615.8223  1.77480e-13
       2617.1953  1.71420e-13
       2618.5684  1.72550e-13
       2619.9414  2.00710e-13
       2621.3145  2.02370e-13
       2622.6875  2.11930e-13
       2624.0605  2.04740e-13
       2625.4336  1.89190e-13
       2626.8064  1.68930e-13
       2628.1794  1.56150e-13
       2629.5525  1.47060e-13
       2630.9255  1.38290e-13
       2632.2986  1.63130e-13
       2633.6714  2.32230e-13
       2635.0444  2.97190e-13
       2636.4175  3.54890e-13
       2637.7903  4.31830e-13
       2639.1633  4.64890e-13
       2640.5361  4.57350e-13
       2641.9092  4.89990e-13
       2643.2820  5.35970e-13
       2644.6550  4.93090e-13
       2646.0278  4.49870e-13
       2647.4009  4.12130e-13
       2648.7737  3.81330e-13
       2650.1465  3.86340e-13
       2651.5195  4.07110e-13
       2652.8923  4.35190e-13
       2654.2651  4.84750e-13
       2655.6379  5.07220e-13
       2657.0110  5.11850e-13
       2658.3838  4.95250e-13
       2659.7566  4.87910e-13
       2661.1294  4.56920e-13
       2662.5022  4.29000e-13
       2663.8750  4.18130e-13
       2665.2478  4.30640e-13
       2666.6206  4.23930e-13
       2667.9934  4.25530e-13
       2669.3662  4.29050e-13
       2670.7388  4.37580e-13
       2672.1116  4.17540e-13
       2673.4844  4.39520e-13
       2674.8572  4.93160e-13
       2676.2297  4.86790e-13
       2677.6025  4.38770e-13
       2678.9753  4.11320e-13
       2680.3479  4.19870e-13
       2681.7207  4.39560e-13
       2683.0933  4.53970e-13
       2684.4661  4.47530e-13
       2685.8386  4.61340e-13
       2687.2114  4.54990e-13
       2688.5840  4.26890e-13
       2689.9565  3.99870e-13
       2691.3293  4.14330e-13
       2692.7019  4.41820e-13
       2694.0745  4.30130e-13
       2695.4470  3.92190e-13
       2696.8196  3.86260e-13
       2698.1924  4.13080e-13
       2699.5649  4.66470e-13
       2700.9375  4.98020e-13
       2702.3101  4.92370e-13
       2703.6826  5.09160e-13
       2705.0549  5.16020e-13
       2706.4275  4.69950e-13
       2707.8000  4.44300e-13
       2709.1726  4.41960e-13
       2710.5452  4.39730e-13
       2711.9177  4.44110e-13
       2713.2900  4.25910e-13
       2714.6626  4.00740e-13
       2716.0349  3.72850e-13
       2717.4075  3.53750e-13
       2718.7800  2.77820e-13
       2720.1523  2.32320e-13
       2721.5249  2.58380e-13
       2722.8972  2.93660e-13
       2724.2695  3.09130e-13
       2725.6421  3.27480e-13
       2727.0144  3.50240e-13
       2728.3867  3.90470e-13
       2729.7590  4.48530e-13
       2731.1316  4.34820e-13
       2732.5039  3.89820e-13
       2733.8762  3.43240e-13
       2735.2485  3.12420e-13
       2736.6208  2.81260e-13
       2737.9932  2.47220e-13
       2739.3655  2.39690e-13
       2740.7378  2.25840e-13
       2742.1101  2.14350e-13
       2743.4822  1.96840e-13
       2744.8545  2.11500e-13
       2746.2268  2.25820e-13
       2747.5989  2.09200e-13
       2748.9712  2.03640e-13
       2750.3435  2.11830e-13
       2751.7156  2.79890e-13
       2753.0879  3.26930e-13
       2754.4600  2.88660e-13
       2755.8323  2.53760e-13
       2757.2043  2.84760e-13
       2758.5764  3.91260e-13
       2759.9487  4.36270e-13
       2761.3208  4.04390e-13
       2762.6929  3.76120e-13
       2764.0649  4.13220e-13
       2765.4370  4.51050e-13
       2766.8093  4.28620e-13
       2768.1814  4.01500e-13
       2769.5535  4.08800e-13
       2770.9255  4.29120e-13
       2772.2974  4.34730e-13
       2773.6694  4.39500e-13
       2775.0415  4.33750e-13
       2776.4136  3.89610e-13
       2777.7856  3.42630e-13
       2779.1575  2.96930e-13
       2780.5295  2.74840e-13
       2781.9014  2.74880e-13
       2783.2734  2.70400e-13
       2784.6455  2.73660e-13
       2786.0173  2.70510e-13
       2787.3892  2.46400e-13
       2788.7612  2.10720e-13
       2790.1331  1.82550e-13
       2791.5049  1.57030e-13
       2792.8770  1.36270e-13
       2794.2488  1.27160e-13
       2795.6206  1.41480e-13
       2796.9924  1.28400e-13
       2798.3643  1.10450e-13
       2799.7361  1.19970e-13
       2801.1079  1.21850e-13
       2802.4797  1.30500e-13
       2803.8516  1.36550e-13
       2805.2231  1.39320e-13
       2806.5950  1.66970e-13
       2807.9668  1.99590e-13
       2809.3386  2.32170e-13
       2810.7102  2.57520e-13
       2812.0820  2.73060e-13
       2813.4536  3.03990e-13
       2814.8254  3.63770e-13
       2816.1970  3.86170e-13
       2817.5688  3.96010e-13
       2818.9404  4.24710e-13
       2820.3120  4.53830e-13
       2821.6836  4.63490e-13
       2823.0554  4.85160e-13
       2824.4270  5.15810e-13
       2825.7986  4.94060e-13
       2827.1702  4.99420e-13
       2828.5417  5.17540e-13
       2829.9133  5.49410e-13
       2831.2849  5.48230e-13
       2832.6562  5.37190e-13
       2834.0278  5.31550e-13
       2835.3994  4.81500e-13
       2836.7710  4.84890e-13
       2838.1423  5.42070e-13
       2839.5139  5.28090e-13
       2840.8853  4.88070e-13
       2842.2568  4.84630e-13
       2843.6282  4.22960e-13
       2844.9998  4.18840e-13
       2846.3711  3.67470e-13
       2847.7424  3.02960e-13
       2849.1138  2.32080e-13
       2850.4854  1.74390e-13
       2851.8567  1.29750e-13
       2853.2280  1.35310e-13
       2854.5994  1.82370e-13
       2855.9707  2.42120e-13
       2857.3420  3.05240e-13
       2858.7131  3.76780e-13
       2860.0845  4.64840e-13
       2861.4558  5.00730e-13
       2862.8271  5.16550e-13
       2864.1982  5.60360e-13
       2865.5696  5.70890e-13
       2866.9407  5.53720e-13
       2868.3120  5.20240e-13
       2869.6831  5.46180e-13
       2871.0544  6.35690e-13
       2872.4255  6.70070e-13
       2873.7966  6.15510e-13
       2875.1680  5.91750e-13
       2876.5391  5.56890e-13
       2877.9102  5.18170e-13
       2879.2812  4.50010e-13
       2880.6523  3.42500e-13
       2882.0234  2.93330e-13
       2883.3945  3.98750e-13
       2884.7654  5.56540e-13
       2886.1365  6.43910e-13
       2887.5076  6.51700e-13
       2888.8787  6.56380e-13
       2890.2495  6.58970e-13
       2891.6206  6.64840e-13
       2892.9915  6.71150e-13
       2894.3625  7.07140e-13
       2895.7334  7.98500e-13
       2897.1042  8.45260e-13
       2898.4753  8.64550e-13
       2899.8462  9.55180e-13
       2901.2170  9.75590e-13
       2902.5879  9.63220e-13
       2903.9587  1.02980e-12
       2905.3296  1.01050e-12
       2906.7004  9.69410e-13
       2908.0713  9.26920e-13
       2909.4421  9.06540e-13
       2910.8130  9.16280e-13
       2912.1836  9.62820e-13
       2913.5544  9.96190e-13
       2914.9253  9.22560e-13
       2916.2959  8.98490e-13
       2917.6667  8.84880e-13
       2919.0374  8.79920e-13
       2920.4080  9.07830e-13
       2921.7788  9.08800e-13
       2923.1494  8.38210e-13
       2924.5200  7.82930e-13
       2925.8906  7.53820e-13
       2927.2612  7.49470e-13
       2928.6318  7.29720e-13
       2930.0024  8.54700e-13
       2931.3730  9.81360e-13
       2932.7437  9.87160e-13
       2934.1143  9.65590e-13
       2935.4846  8.86620e-13
       2936.8552  7.21930e-13
       2938.2258  7.04640e-13
       2939.5962  7.70360e-13
       2940.9668  7.94610e-13
       2942.3372  8.42920e-13
       2943.7075  8.72730e-13
       2945.0781  8.62870e-13
       2946.4485  8.19110e-13
       2947.8188  6.80410e-13
       2949.1892  6.71870e-13
       2950.5596  8.11010e-13
       2951.9299  9.33740e-13
       2953.3003  8.69990e-13
       2954.6707  8.38770e-13
       2956.0410  8.92570e-13
       2957.4114  8.76410e-13
       2958.7815  9.46790e-13
       2960.1519  9.29270e-13
       2961.5220  9.42310e-13
       2962.8923  9.48390e-13
       2964.2625  8.55680e-13
       2965.6328  6.44260e-13
       2967.0029  5.84860e-13
       2968.3730  6.51990e-13
       2969.7432  6.34980e-13
       2971.1135  6.68550e-13
       2972.4836  6.95690e-13
       2973.8538  7.52250e-13
       2975.2239  9.15670e-13
       2976.5938  1.00950e-12
       2977.9639  1.06160e-12
       2979.3340  9.53920e-13
       2980.7041  7.95100e-13
       2982.0740  6.62450e-13
       2983.4441  5.75220e-13
       2984.8140  5.35790e-13
       2986.1841  6.03010e-13
       2987.5540  7.00430e-13
       2988.9238  8.38340e-13
       2990.2937  9.64280e-13
       2991.6638  9.42880e-13
       2993.0337  8.30400e-13
       2994.4036  7.19430e-13
       2995.7734  7.78700e-13
       2997.1433  8.89980e-13
       2998.5129  8.08720e-13
       2999.8828  6.11320e-13
       3001.2527  5.22290e-13
       3002.6223  5.44560e-13
       3003.9922  6.59630e-13
       3005.3621  7.90970e-13
       3006.7317  7.31980e-13
       3008.1013  6.44220e-13
       3009.4712  7.21190e-13
       3010.8408  8.34060e-13
       3012.2104  8.40240e-13
       3013.5801  8.64100e-13
       3014.9497  8.52820e-13
       3016.3193  8.06110e-13
       3017.6890  6.86600e-13
       3019.0586  5.60080e-13
       3020.4282  4.76190e-13
       3021.7976  5.72520e-13
       3023.1672  7.79000e-13
       3024.5366  7.96490e-13
       3025.9062  8.01380e-13
       3027.2756  9.66980e-13
       3028.6453  1.06980e-12
       3030.0146  1.01320e-12
       3031.3840  1.01580e-12
       3032.7534  1.11070e-12
       3034.1228  1.14080e-12
       3035.4922  1.10270e-12
       3036.8616  9.49110e-13
       3038.2310  8.39290e-13
       3039.6003  8.95920e-13
       3040.9697  8.97640e-13
       3042.3389  8.89020e-13
       3043.7083  1.01190e-12
       3045.0776  1.07230e-12
       3046.4468  9.95780e-13
       3047.8159  9.63390e-13
       3049.1853  9.56100e-13
       3050.5544  1.07260e-12
       3051.9236  1.15530e-12
       3053.2927  1.12250e-12
       3054.6619  9.92350e-13
       3056.0310  9.25440e-13
       3057.4001  7.58600e-13
       3058.7693  6.81770e-13
       3060.1384  8.34530e-13
       3067.3921  9.17980e-13
       3070.1382  1.01560e-12
       3072.8843  1.00950e-12
       3075.6304  1.00690e-12
       3078.3765  1.02290e-12
       3081.1226  9.84800e-13
       3083.8689  1.02340e-12
       3086.6150  9.82830e-13
       3089.3613  8.54560e-13
       3092.1074  8.00630e-13
       3094.8538  8.03330e-13
       3097.6001  7.74040e-13
       3100.3462  7.70350e-13
       3103.0925  9.89530e-13
       3105.8389  1.17320e-12
       3108.5852  1.23830e-12
       3111.3315  1.23040e-12
       3114.0779  1.18450e-12
       3116.8245  1.06890e-12
       3119.5708  1.00490e-12
       3122.3171  1.02880e-12
       3125.0637  1.05200e-12
       3127.8101  1.08290e-12
       3130.5566  1.09000e-12
       3133.3030  1.09450e-12
       3136.0496  1.13570e-12
       3138.7961  1.10600e-12
       3141.5427  1.05730e-12
       3144.2893  9.19160e-13
       3147.0359  1.03450e-12
       3149.7825  1.13120e-12
       3152.5291  1.08170e-12
       3155.2756  9.91350e-13
       3158.0222  9.12570e-13
       3160.7688  8.65510e-13
       3163.5156  1.00160e-12
       3166.2622  1.08270e-12
       3169.0090  1.18410e-12
       3171.7556  1.26390e-12
       3174.5024  1.25990e-12
       3177.2493  1.12940e-12
       3179.9961  9.46060e-13
       3182.7427  9.66260e-13
       3185.4895  1.07060e-12
       3188.2363  1.15170e-12
       3190.9832  1.06660e-12
       3193.7300  1.02010e-12
       3196.4771  1.12920e-12
       3199.2239  1.23610e-12
       3201.9707  1.28560e-12
       3204.7178  1.33760e-12
       3207.4646  1.22780e-12
       3210.2114  1.04810e-12
       3212.9585  9.88510e-13
       3215.7056  1.08640e-12
       3218.4524  1.19850e-12
       3221.1995  1.16900e-12
       3223.9465  1.08870e-12
       3226.6936  9.93370e-13
       3229.4407  9.77040e-13
       3232.1877  1.04670e-12
       3234.9348  1.03980e-12
       3237.6819  1.10860e-12
       3240.4290  1.19320e-12
       3243.1760  1.22990e-12
       3245.9231  1.25880e-12
       3248.6704  1.20250e-12
       3251.4175  1.25950e-12
       3254.1646  1.38840e-12
       3256.9119  1.51160e-12
       3259.6592  1.57000e-12
       3262.4062  1.52140e-12
       3265.1536  1.48880e-12
       3267.9009  1.55400e-12
       3270.6479  1.50160e-12
       3273.3953  1.50590e-12
       3276.1426  1.48930e-12
       3278.8899  1.45450e-12
       3281.6372  1.44760e-12
       3284.3845  1.41890e-12
       3287.1318  1.38550e-12
       3289.8794  1.54770e-12
       3292.6267  1.66880e-12
       3295.3740  1.71080e-12
       3298.1213  1.70670e-12
       3300.8689  1.68970e-12
       3303.6162  1.54450e-12
       3306.3638  1.43740e-12
       3309.1111  1.52730e-12
       3311.8586  1.54080e-12
       3314.6062  1.49830e-12
       3317.3535  1.54870e-12
       3320.1011  1.51070e-12
       3322.8486  1.43340e-12
       3325.5962  1.49130e-12
       3328.3438  1.47920e-12
       3331.0913  1.46560e-12
       3333.8389  1.44140e-12
       3336.5864  1.35100e-12
       3339.3340  1.43040e-12
       3342.0815  1.47770e-12
       3344.8291  1.52850e-12
       3347.5769  1.49480e-12
       3350.3245  1.44250e-12
       3353.0720  1.56590e-12
       3355.8198  1.55890e-12
       3358.5674  1.30710e-12
       3361.3152  1.15450e-12
       3364.0627  1.38020e-12
       3366.8105  1.36650e-12
       3369.5583  1.21950e-12
       3372.3059  1.23350e-12
       3375.0537  1.43970e-12
       3377.8015  1.47640e-12
       3380.5493  1.33130e-12
       3383.2971  1.41560e-12
       3386.0449  1.45260e-12
       3388.7927  1.48270e-12
       3391.5405  1.43550e-12
       3394.2883  1.43150e-12
       3397.0361  1.60060e-12
       3399.7839  1.71240e-12
       3402.5317  1.64400e-12
       3405.2795  1.54730e-12
       3408.0276  1.48420e-12
       3410.7754  1.48820e-12
       3413.5232  1.39010e-12
       3416.2712  1.42960e-12
       3419.0190  1.57280e-12
       3421.7671  1.57900e-12
       3424.5149  1.52150e-12
       3427.2629  1.56200e-12
       3430.0110  1.66810e-12
       3432.7588  1.58900e-12
       3435.5068  1.55260e-12
       3438.2549  1.38120e-12
       3441.0029  1.12200e-12
       3443.7507  1.12500e-12
       3446.4988  1.29520e-12
       3449.2468  1.44910e-12
       3451.9949  1.49880e-12
       3454.7429  1.53090e-12
       3457.4910  1.47980e-12
       3460.2390  1.36830e-12
       3462.9871  1.42700e-12
       3465.7354  1.49410e-12
       3468.4834  1.55340e-12
       3471.2314  1.54400e-12
       3473.9795  1.37360e-12
       3476.7278  1.29820e-12
       3479.4758  1.46850e-12
       3482.2239  1.51660e-12
       3484.9722  1.48250e-12
       3487.7202  1.50710e-12
       3490.4685  1.40900e-12
       3493.2166  1.34580e-12
       3495.9648  1.39040e-12
       3498.7129  1.50140e-12
       3501.4612  1.67570e-12
       3504.2095  1.71030e-12
       3506.9575  1.66600e-12
       3509.7058  1.58290e-12
       3512.4541  1.48660e-12
       3515.2024  1.47260e-12
       3517.9504  1.63290e-12
       3520.6987  1.55260e-12
       3523.4470  1.36800e-12
       3526.1953  1.38690e-12
       3528.9436  1.50040e-12
       3531.6919  1.60550e-12
       3534.4402  1.66220e-12
       3537.1885  1.71580e-12
       3539.9368  1.74670e-12
       3542.6851  1.73620e-12
       3545.4336  1.79890e-12
       3548.1819  1.78430e-12
       3550.9302  1.78330e-12
       3553.6785  1.67840e-12
       3556.4268  1.62760e-12
       3559.1753  1.62220e-12
       3561.9236  1.67790e-12
       3564.6719  1.53010e-12
       3567.4204  1.30940e-12
       3570.1687  1.21550e-12
       3572.9172  1.31090e-12
       3575.6655  1.41870e-12
       3578.4141  1.36410e-12
       3581.1624  1.14030e-12
       3583.9109  1.10450e-12
       3586.6592  1.09970e-12
       3589.4077  1.30330e-12
       3592.1560  1.56510e-12
       3594.9045  1.64410e-12
       3597.6531  1.75940e-12
       3600.4014  1.76610e-12
       3603.1499  1.61880e-12
       3605.8984  1.46590e-12
       3608.6470  1.34420e-12
       3611.3953  1.37620e-12
       3614.1438  1.46560e-12
       3616.8923  1.48040e-12
       3619.6409  1.30040e-12
       3622.3894  1.48570e-12
       3625.1379  1.65960e-12
       3627.8865  1.79730e-12
       3630.6350  1.57080e-12
       3633.3835  1.39540e-12
       3636.1321  1.52170e-12
       3638.8806  1.68280e-12
       3641.6292  1.74490e-12
       3644.3777  1.60740e-12
       3647.1262  1.47440e-12
       3649.8748  1.49040e-12
       3652.6233  1.69190e-12
       3655.3718  1.86540e-12
       3658.1204  1.94300e-12
       3660.8691  1.98330e-12
       3663.6177  1.92640e-12
       3666.3662  1.87270e-12
       3669.1147  1.84260e-12
       3671.8635  1.85900e-12
       3674.6121  1.86980e-12
       3677.3606  1.82700e-12
       3680.1091  1.67290e-12
       3682.8579  1.70820e-12
       3685.6064  1.69720e-12
       3688.3550  1.64560e-12
       3691.1038  1.83570e-12
       3693.8523  1.93470e-12
       3696.6011  1.93770e-12
       3699.3496  2.00530e-12
       3702.0984  1.97530e-12
       3704.8469  1.71730e-12
       3707.5955  1.55500e-12
       3710.3442  1.65930e-12
       3713.0928  1.92070e-12
       3715.8416  2.02330e-12
       3718.5901  1.75860e-12
       3721.3389  1.38450e-12
       3724.0876  1.51870e-12
       3726.8362  1.74970e-12
       3729.5850  1.71060e-12
       3732.3335  1.52960e-12
       3735.0823  1.19020e-12
       3737.8311  1.23900e-12
       3740.5796  1.55430e-12
       3743.3284  1.57460e-12
       3746.0769  1.29970e-12
       3748.8257  1.18910e-12
       3751.5745  1.43090e-12
       3754.3232  1.73920e-12
       3757.0718  1.83680e-12
       3759.8206  1.55710e-12
       3762.5693  1.65830e-12
       3765.3179  1.64860e-12
       3768.0667  1.67460e-12
       3770.8154  1.77600e-12
       3773.5642  1.95500e-12
       3776.3127  2.06350e-12
       3779.0615  2.13860e-12
       3781.8103  2.23020e-12
       3784.5591  2.20090e-12
       3787.3076  1.95170e-12
       3790.0564  1.81330e-12
       3792.8052  1.79530e-12
       3795.5540  1.66690e-12
       3798.3027  1.58900e-12
       3801.0515  1.73900e-12
       3803.8000  2.02370e-12
       3806.5488  2.04430e-12
       3809.2976  2.03020e-12
       3812.0464  2.01370e-12
       3814.7952  1.69850e-12
       3817.5439  1.55070e-12
       3820.2925  1.47670e-12
       3823.0413  1.41690e-12
       3825.7900  1.24090e-12
       3828.5388  1.14790e-12
       3831.2876  1.15940e-12
       3834.0364  1.08130e-12
       3836.7852  1.12390e-12
       3839.5337  1.13180e-12
       3842.2825  1.37790e-12
       3845.0312  1.71920e-12
       3847.7800  1.84350e-12
       3850.5288  1.83280e-12
       3853.2776  1.82450e-12
       3856.0264  1.70050e-12
       3858.7751  1.55980e-12
       3861.5239  1.51280e-12
       3864.2725  1.72720e-12
       3867.0212  1.84880e-12
       3869.7700  1.75590e-12
       3872.5188  1.59490e-12
       3875.2676  1.70990e-12
       3878.0164  1.68870e-12
       3880.7651  1.63020e-12
       3883.5139  1.60720e-12
       3886.2625  1.52830e-12
       3889.0112  1.45680e-12
       3891.7600  1.66450e-12
       3894.5088  1.79970e-12
       3897.2576  1.88270e-12
       3900.0063  1.87570e-12
       3902.7551  1.82530e-12
       3905.5037  1.74140e-12
       3908.2524  1.86970e-12
       3911.0012  2.05190e-12
       3913.7500  2.08750e-12
       3916.4988  2.01710e-12
       3919.2476  1.89890e-12
       3921.9961  1.70580e-12
       3924.7449  1.62580e-12
       3927.4937  1.39360e-12
       3930.2424  1.01060e-12
       3932.9912  7.35430e-13
       3935.7397  7.17710e-13
       3938.4885  1.00390e-12
       3941.2373  1.32900e-12
       3943.9861  1.48490e-12
       3946.7349  1.70980e-12
       3949.4834  1.85340e-12
       3952.2322  1.97170e-12
       3954.9810  1.97460e-12
       3957.7295  1.90630e-12
       3960.4783  1.79450e-12
       3963.2271  1.41450e-12
       3965.9758  1.10510e-12
       3968.7244  8.32570e-13
       3971.4731  9.51680e-13
       3974.2219  1.31990e-12
       3976.9705  1.71930e-12
       3979.7192  2.04710e-12
       3982.4680  2.16670e-12
       3985.2166  2.23500e-12
       3987.9653  2.30270e-12
       3990.7139  2.39380e-12
       3993.4626  2.46740e-12
       3996.2112  2.44810e-12
       3998.9600  2.44550e-12
       4001.7087  2.52690e-12
       4004.4573  2.48310e-12
       4007.2061  2.35990e-12
       4009.9546  2.52480e-12
       4012.7034  2.60350e-12
       4015.4519  2.60480e-12
       4018.2004  2.59020e-12
       4020.9492  2.63160e-12
       4023.6978  2.63840e-12
       4026.4465  2.64950e-12
       4029.1951  2.61840e-12
       4031.9438  2.41870e-12
       4034.6924  2.39340e-12
       4037.4409  2.59140e-12
       4040.1897  2.67830e-12
       4042.9382  2.56190e-12
       4045.6868  2.26810e-12
       4048.4353  2.37450e-12
       4051.1841  2.56030e-12
       4053.9326  2.55710e-12
       4056.6812  2.45620e-12
       4059.4297  2.44160e-12
       4062.1782  2.43640e-12
       4064.9270  2.26250e-12
       4067.6755  2.36930e-12
       4070.4241  2.47030e-12
       4073.1726  2.37570e-12
       4075.9211  2.42080e-12
       4078.6697  2.33900e-12
       4081.4182  2.51500e-12
       4084.1667  2.59470e-12
       4086.9153  2.63550e-12
       4089.6638  2.76370e-12
       4092.4124  2.73100e-12
       4095.1609  2.61990e-12
       4097.9092  2.45860e-12
       4100.6577  2.25030e-12
       4103.4062  2.12890e-12
       4106.1548  2.39190e-12
       4108.9033  2.55570e-12
       4111.6519  2.62630e-12
       4114.4004  2.71140e-12
       4117.1489  2.78210e-12
       4119.8975  2.70730e-12
       4122.6455  2.70240e-12
       4125.3940  2.70580e-12
       4128.1426  2.63770e-12
       4130.8911  2.58620e-12
       4133.6396  2.57070e-12
       4136.3877  2.67100e-12
       4139.1362  2.77850e-12
       4141.8848  2.73970e-12
       4144.6333  2.53110e-12
       4147.3813  2.61900e-12
       4150.1299  2.68980e-12
       4152.8784  2.66340e-12
       4155.6270  2.55670e-12
       4158.3750  2.61660e-12
       4161.1235  2.71820e-12
       4163.8721  2.80060e-12
       4166.6201  2.77640e-12
       4169.3687  2.68230e-12
       4172.1167  2.58730e-12
       4174.8652  2.46170e-12
       4177.6138  2.53950e-12
       4180.3618  2.60600e-12
       4183.1104  2.57850e-12
       4185.8584  2.55130e-12
       4188.6069  2.48410e-12
       4191.3550  2.61360e-12
       4194.1035  2.68760e-12
       4196.8516  2.56560e-12
       4199.5996  2.42160e-12
       4202.3481  2.44120e-12
       4205.0962  2.58450e-12
       4207.8447  2.71400e-12
       4210.5928  2.74560e-12
       4213.3408  2.74870e-12
       4216.0894  2.66300e-12
       4218.8374  2.63960e-12
       4221.5854  2.64830e-12
       4224.3340  2.47510e-12
       4227.0820  2.16460e-12
       4229.8301  2.34550e-12
       4232.5781  2.58700e-12
       4235.3267  2.54200e-12
       4238.0747  2.44860e-12
       4240.8228  2.50900e-12
       4243.5708  2.60370e-12
       4246.3188  2.60930e-12
       4249.0669  2.46910e-12
       4251.8154  2.41530e-12
       4254.5635  2.51470e-12
       4257.3115  2.51740e-12
       4260.0596  2.45380e-12
       4262.8076  2.49440e-12
       4265.5557  2.61920e-12
       4268.3037  2.58390e-12
       4271.0518  2.34530e-12
       4273.7998  2.19520e-12
       4276.5479  2.32410e-12
       4279.2959  2.52690e-12
       4282.0435  2.45200e-12
       4284.7915  2.40170e-12
       4287.5396  2.32880e-12
       4290.2876  2.21660e-12
       4293.0356  2.25410e-12
       4295.7837  2.25690e-12
       4298.5312  2.06720e-12
       4301.2793  1.82560e-12
       4304.0273  1.80990e-12
       4306.7754  1.81150e-12
       4309.5229  1.73050e-12
       4312.2710  1.88510e-12
       4315.0190  2.24540e-12
       4317.7666  2.60050e-12
       4320.5146  2.74440e-12
       4323.2622  2.53590e-12
       4326.0103  2.21510e-12
       4328.7578  2.42160e-12
       4331.5059  2.66680e-12
       4334.2534  2.69810e-12
       4337.0015  2.54980e-12
       4339.7490  2.26260e-12
       4342.4971  2.09520e-12
       4345.2446  2.41510e-12
       4347.9922  2.60940e-12
       4350.7402  2.66220e-12
       4353.4878  2.48130e-12
       4356.2354  2.61410e-12
       4358.9834  2.69970e-12
       4361.7310  2.76410e-12
       4364.4785  2.81720e-12
       4367.2261  2.80300e-12
       4369.9741  2.70970e-12
       4372.7217  2.65300e-12
       4375.4692  2.55500e-12
       4378.2168  2.61240e-12
       4380.9644  2.59430e-12
       4383.7119  2.30910e-12
       4386.4595  2.25640e-12
       4389.2070  2.47210e-12
       4391.9546  2.56070e-12
       4394.7021  2.63920e-12
       4397.4497  2.67330e-12
       4400.1973  2.67970e-12
       4402.9448  2.59720e-12
       4405.6924  2.47340e-12
       4408.4395  2.59770e-12
       4411.1870  2.72780e-12
       4413.9346  2.83940e-12
       4416.6821  2.70660e-12
       4419.4292  2.81950e-12
       4422.1768  2.89700e-12
       4424.9243  2.82320e-12
       4427.6714  2.83670e-12
       4430.4189  2.86290e-12
       4433.1665  2.83050e-12
       4435.9136  2.74920e-12
       4438.6611  2.85950e-12
       4441.4082  2.88470e-12
       4444.1558  2.87060e-12
       4446.9028  2.91480e-12
       4449.6504  2.89130e-12
       4452.3975  2.82870e-12
       4455.1445  2.72520e-12
       4457.8921  2.63200e-12
       4460.6392  2.65870e-12
       4463.3862  2.70760e-12
       4466.1333  2.82290e-12
       4468.8809  2.83800e-12
       4471.6279  2.85620e-12
       4474.3750  2.96890e-12
       4477.1221  3.01680e-12
       4479.8691  2.98030e-12
       4482.6162  2.83540e-12
       4485.3633  2.95710e-12
       4488.1104  2.99170e-12
       4490.8574  2.90620e-12
       4493.6045  2.96050e-12
       4496.3516  2.92610e-12
       4499.0986  3.00060e-12
       4501.8457  3.03500e-12
       4504.5928  3.12550e-12
       4507.3394  3.15700e-12
       4510.0864  3.14500e-12
       4512.8335  3.11490e-12
       4515.5806  3.03730e-12
       4518.3271  3.03590e-12
       4521.0742  3.05700e-12
       4523.8213  2.98370e-12
       4526.5679  2.86920e-12
       4529.3149  2.74580e-12
       4532.0615  2.76610e-12
       4534.8086  2.80500e-12
       4537.5552  2.89510e-12
       4540.3018  2.98350e-12
       4543.0488  2.99660e-12
       4545.7954  2.94160e-12
       4548.5420  2.87390e-12
       4551.2891  2.84800e-12
       4554.0356  2.86980e-12
       4556.7822  2.90760e-12
       4559.5288  3.02840e-12
       4562.2759  3.06650e-12
       4565.0225  3.00610e-12
       4567.7690  2.99720e-12
       4570.5156  3.04240e-12
       4573.2622  3.01630e-12
       4576.0088  3.07640e-12
       4578.7554  3.05330e-12
       4581.5020  2.92410e-12
       4584.2480  2.87780e-12
       4586.9946  2.92810e-12
       4589.7412  2.98750e-12
       4592.4878  2.96610e-12
       4595.2344  2.94950e-12
       4597.9805  2.94090e-12
       4600.7271  2.95250e-12
       4603.4736  2.97250e-12
       4606.2197  3.00680e-12
       4608.9663  3.03790e-12
       4611.7124  3.05460e-12
       4614.4590  3.04320e-12
       4617.2051  3.05320e-12
       4619.9517  3.02970e-12
       4622.6978  3.06400e-12
       4625.4438  3.07030e-12
       4628.1904  3.07340e-12
       4630.9365  3.07980e-12
       4633.6826  3.05800e-12
       4636.4287  3.02860e-12
       4639.1748  2.98120e-12
       4641.9214  3.00790e-12
       4644.6675  2.98380e-12
       4647.4136  2.90250e-12
       4650.1597  2.92570e-12
       4652.9058  2.95410e-12
       4655.6519  2.96880e-12
       4658.3975  3.01910e-12
       4661.1436  3.05010e-12
       4663.8896  2.98710e-12
       4666.6357  2.89850e-12
       4669.3818  2.80560e-12
       4672.1274  2.93630e-12
       4674.8735  2.97670e-12
       4677.6196  3.00770e-12
       4680.3652  2.97370e-12
       4683.1113  2.95540e-12
       4685.8569  2.96160e-12
       4688.6030  2.98680e-12
       4691.3486  2.98850e-12
       4694.0942  2.98230e-12
       4696.8403  3.01710e-12
       4699.5859  2.93280e-12
       4702.3315  2.85280e-12
       4705.0776  2.82910e-12
       4707.8232  2.85430e-12
       4710.5688  2.89090e-12
       4713.3145  2.92920e-12
       4716.0601  2.96060e-12
       4718.8057  3.04100e-12
       4721.5513  3.09190e-12
       4724.2969  3.07180e-12
       4727.0425  3.02280e-12
       4729.7881  2.97050e-12
       4732.5332  2.93010e-12
       4735.2788  2.97410e-12
       4738.0244  2.96730e-12
       4740.7700  2.99990e-12
       4743.5151  3.01160e-12
       4746.2607  3.04260e-12
       4749.0059  3.06920e-12
       4751.7515  3.04880e-12
       4754.4966  2.98440e-12
       4757.2422  2.95140e-12
       4759.9873  2.99010e-12
       4762.7329  2.93830e-12
       4765.4780  2.92450e-12
       4768.2231  2.93410e-12
       4770.9683  3.00420e-12
       4773.7134  3.03080e-12
       4776.4590  3.06170e-12
       4779.2041  3.07850e-12
       4781.9492  3.04830e-12
       4784.6943  2.99730e-12
       4787.4395  2.95380e-12
       4790.1841  2.94430e-12
       4792.9292  2.99610e-12
       4795.6743  3.03860e-12
       4798.4194  3.04170e-12
       4801.1646  3.00380e-12
       4803.9092  2.99930e-12
       4806.6543  2.98620e-12
       4809.3994  2.97130e-12
       4812.1440  3.01760e-12
       4814.8892  3.02450e-12
       4817.6338  3.04680e-12
       4820.3784  3.02410e-12
       4823.1235  3.00330e-12
       4825.8682  2.98070e-12
       4828.6128  2.98210e-12
       4831.3579  2.96750e-12
       4834.1025  2.96140e-12
       4836.8472  2.95800e-12
       4839.5918  2.93420e-12
       4842.3364  2.91180e-12
       4845.0811  2.93250e-12
       4847.8257  2.93280e-12
       4850.5703  2.91060e-12
       4853.3149  2.85950e-12
       4856.0591  2.72400e-12
       4858.8037  2.52150e-12
       4861.5483  2.36180e-12
       4864.2930  2.30830e-12
       4867.0371  2.55430e-12
       4869.7817  2.66830e-12
       4872.5259  2.59830e-12
       4875.2705  2.68380e-12
       4878.0146  2.78460e-12
       4880.7588  2.86530e-12
       4883.5034  2.87270e-12
       4886.2476  2.79010e-12
       4888.9917  2.74530e-12
       4891.7358  2.71140e-12
       4894.4805  2.83640e-12
       4897.2246  2.92030e-12
       4899.9688  2.95830e-12
       4902.7129  2.94000e-12
       4905.4565  2.90170e-12
       4908.2007  2.91660e-12
       4910.9448  2.85840e-12
       4913.6890  2.85740e-12
       4916.4331  2.87330e-12
       4919.1768  2.72560e-12
       4921.9209  2.61370e-12
       4924.6646  2.72560e-12
       4927.4087  2.83170e-12
       4930.1523  2.92460e-12
       4932.8965  2.88730e-12
       4935.6401  2.82330e-12
       4938.3843  2.80410e-12
       4941.1279  2.81410e-12
       4943.8716  2.91260e-12
       4946.6152  2.96750e-12
       4949.3589  2.98470e-12
       4952.1025  2.96180e-12
       4954.8462  2.90440e-12
       4957.5898  2.80140e-12
       4960.3335  2.79580e-12
       4963.0771  2.92790e-12
       4965.8208  2.94040e-12
       4968.5645  2.89200e-12
       4971.3076  2.90200e-12
       4974.0513  2.93980e-12
       4976.7944  2.94920e-12
       4979.5381  2.89180e-12
       4982.2812  2.78570e-12
       4985.0249  2.70360e-12
       4987.7681  2.76480e-12
       4990.5112  2.85450e-12
       4993.2549  2.87940e-12
       4995.9980  2.89710e-12
       4998.7412  2.87860e-12
       5001.4844  2.80540e-12
       5004.2275  2.77510e-12
       5006.9707  2.71150e-12
       5009.7139  2.75380e-12
       5012.4570  2.77740e-12
       5015.2002  2.71370e-12
       5017.9434  2.72070e-12
       5020.6860  2.75070e-12
       5023.4292  2.79580e-12
       5026.1719  2.80780e-12
       5028.9150  2.81160e-12
       5031.6577  2.82590e-12
       5034.4009  2.90640e-12
       5037.1436  2.83080e-12
       5039.8867  2.75130e-12
       5042.6294  2.67240e-12
       5045.3721  2.80980e-12
       5048.1147  2.89070e-12
       5050.8574  2.84130e-12
       5053.6001  2.85080e-12
       5056.3428  2.92980e-12
       5059.0854  2.95640e-12
       5061.8281  2.95480e-12
       5064.5708  2.90980e-12
       5067.3135  2.84930e-12
       5070.0557  2.84340e-12
       5072.7983  2.83920e-12
       5075.5405  2.83590e-12
       5078.2832  2.81540e-12
       5081.0254  2.72810e-12
       5083.7681  2.74950e-12
       5086.5103  2.84560e-12
       5089.2524  2.89010e-12
       5091.9951  2.92030e-12
       5094.7373  2.92710e-12
       5097.4795  2.87280e-12
       5100.2217  2.84350e-12
       5102.9639  2.84190e-12
       5105.7061  2.85240e-12
       5108.4482  2.80650e-12
       5111.1904  2.76570e-12
       5113.9321  2.85100e-12
       5116.6743  2.91490e-12
       5119.4165  2.93620e-12
       5122.1582  2.87140e-12
       5124.9004  2.79270e-12
       5127.6421  2.74860e-12
       5130.3843  2.76640e-12
       5133.1260  2.78000e-12
       5135.8677  2.78170e-12
       5138.6094  2.72290e-12
       5141.3511  2.66770e-12
       5144.0933  2.69140e-12
       5146.8350  2.73410e-12
       5149.5767  2.75090e-12
       5152.3179  2.75190e-12
       5155.0596  2.76680e-12
       5157.8013  2.79500e-12
       5160.5430  2.79470e-12
       5163.2842  2.73120e-12
       5166.0259  2.56980e-12
       5168.7671  2.26480e-12
       5171.5088  2.29140e-12
       5174.2500  2.23710e-12
       5176.9917  2.54810e-12
       5179.7329  2.65290e-12
       5182.4741  2.52340e-12
       5185.2153  2.42640e-12
       5187.9565  2.49300e-12
       5190.6978  2.62420e-12
       5193.4390  2.59820e-12
       5196.1802  2.64200e-12
       5198.9214  2.70770e-12
       5201.6626  2.76240e-12
       5204.4038  2.71260e-12
       5207.1445  2.62380e-12
       5209.8857  2.66660e-12
       5212.6265  2.75010e-12
       5215.3677  2.79290e-12
       5218.1084  2.72830e-12
       5220.8491  2.80470e-12
       5223.5903  2.81030e-12
       5226.3311  2.67000e-12
       5229.0718  2.56870e-12
       5231.8125  2.69000e-12
       5234.5532  2.66330e-12
       5237.2939  2.76920e-12
       5240.0347  2.83000e-12
       5242.7754  2.86870e-12
       5245.5156  2.84090e-12
       5248.2563  2.82450e-12
       5250.9971  2.78360e-12
       5253.7373  2.77990e-12
       5256.4780  2.78980e-12
       5259.2183  2.85390e-12
       5261.9585  2.73410e-12
       5264.6992  2.53610e-12
       5267.4395  2.46320e-12
       5270.1797  2.43200e-12
       5272.9199  2.54860e-12
       5275.6602  2.64430e-12
       5278.4004  2.73490e-12
       5281.1406  2.77640e-12
       5283.8804  2.72840e-12
       5286.6206  2.79580e-12
       5289.3608  2.87780e-12
       5292.1006  2.90170e-12
       5294.8408  2.85760e-12
       5297.5806  2.78490e-12
       5300.3208  2.74510e-12
       5303.0605  2.78470e-12
       5305.8003  2.83670e-12
       5308.5405  2.87150e-12
       5311.2803  2.90690e-12
       5314.0200  2.88750e-12
       5316.7598  2.85010e-12
       5319.4995  2.83940e-12
       5322.2388  2.80260e-12
       5324.9785  2.68230e-12
       5327.7183  2.60300e-12
       5330.4575  2.57690e-12
       5333.1973  2.75050e-12
       5335.9365  2.79370e-12
       5338.6763  2.78260e-12
       5341.4155  2.70500e-12
       5344.1548  2.76440e-12
       5346.8945  2.76380e-12
       5349.6338  2.77060e-12
       5352.3730  2.82340e-12
       5355.1123  2.85960e-12
       5357.8516  2.89390e-12
       5360.5908  2.87840e-12
       5363.3296  2.82680e-12
       5366.0688  2.76040e-12
       5368.8081  2.72640e-12
       5371.5469  2.64670e-12
       5374.2861  2.72300e-12
       5377.0249  2.83070e-12
       5379.7642  2.80840e-12
       5382.5029  2.78080e-12
       5385.2417  2.77390e-12
       5387.9805  2.80340e-12
       5390.7192  2.75770e-12
       5393.4580  2.69320e-12
       5396.1968  2.67870e-12
       5398.9355  2.66350e-12
       5401.6743  2.68110e-12
       5404.4126  2.63040e-12
       5407.1514  2.60670e-12
       5409.8896  2.65610e-12
       5412.6284  2.68060e-12
       5415.3667  2.71570e-12
       5418.1055  2.75120e-12
       5420.8438  2.76110e-12
       5423.5820  2.74370e-12
       5426.3203  2.71470e-12
       5429.0586  2.72110e-12
       5431.7969  2.70720e-12
       5434.5352  2.70750e-12
       5437.2734  2.74870e-12
       5440.0112  2.82300e-12
       5442.7495  2.80210e-12
       5445.4878  2.75200e-12
       5448.2256  2.71550e-12
       5451.5532  2.74320e-12
       5456.4238  2.74050e-12
       5461.2949  2.76570e-12
       5466.1655  2.71570e-12
       5471.0366  2.74910e-12
       5475.9077  2.70920e-12
       5480.7788  2.69320e-12
       5485.6504  2.72520e-12
       5490.5215  2.74190e-12
       5495.3926  2.75850e-12
       5500.2642  2.73860e-12
       5505.1353  2.72040e-12
       5510.0068  2.72270e-12
       5514.8784  2.71710e-12
       5519.7500  2.74750e-12
       5524.6216  2.74620e-12
       5529.4932  2.69120e-12
       5534.3652  2.70090e-12
       5539.2368  2.71700e-12
       5544.1089  2.73420e-12
       5548.9805  2.75510e-12
       5553.8525  2.73310e-12
       5558.7246  2.71520e-12
       5563.5967  2.68590e-12
       5568.4688  2.65480e-12
       5573.3408  2.64840e-12
       5578.2129  2.65050e-12
       5583.0854  2.64130e-12
       5587.9575  2.57360e-12
       5592.8301  2.58690e-12
       5597.7026  2.60540e-12
       5602.5747  2.62830e-12
       5607.4473  2.68770e-12
       5612.3198  2.68530e-12
       5617.1929  2.65000e-12
       5622.0654  2.64810e-12
       5626.9380  2.63640e-12
       5631.8110  2.68390e-12
       5636.6836  2.67910e-12
       5641.5566  2.65480e-12
       5646.4297  2.66800e-12
       5651.3027  2.66070e-12
       5656.1758  2.63250e-12
       5661.0488  2.62550e-12
       5665.9219  2.64880e-12
       5670.7949  2.67500e-12
       5675.6685  2.69320e-12
       5680.5415  2.65180e-12
       5685.4150  2.63980e-12
       5690.2886  2.64370e-12
       5695.1616  2.64600e-12
       5700.0352  2.64090e-12
       5704.9087  2.60790e-12
       5709.7827  2.56510e-12
       5714.6562  2.61570e-12
       5719.5298  2.67310e-12
       5724.4038  2.70480e-12
       5729.2773  2.69840e-12
       5734.1514  2.68320e-12
       5739.0254  2.68580e-12
       5743.8989  2.69040e-12
       5748.7729  2.66850e-12
       5753.6470  2.64550e-12
       5758.5215  2.64570e-12
       5763.3955  2.63160e-12
       5768.2695  2.66870e-12
       5773.1440  2.65940e-12
       5778.0181  2.65210e-12
       5782.8926  2.60790e-12
       5787.7671  2.60000e-12
       5792.6411  2.62190e-12
       5797.5156  2.64290e-12
       5802.3901  2.65000e-12
       5807.2651  2.63880e-12
       5812.1396  2.64060e-12
       5817.0142  2.61580e-12
       5821.8892  2.64550e-12
       5826.7637  2.66040e-12
       5831.6387  2.65490e-12
       5836.5137  2.63980e-12
       5841.3882  2.64510e-12
       5846.2632  2.63680e-12
       5851.1382  2.61710e-12
       5856.0132  2.58960e-12
       5860.8887  2.57850e-12
       5865.7637  2.59970e-12
       5870.6387  2.62030e-12
       5875.5142  2.61130e-12
       5880.3892  2.59570e-12
       5885.2646  2.54480e-12
       5890.1401  2.41420e-12
       5895.0156  2.41130e-12
       5899.8911  2.47940e-12
       5904.7666  2.54910e-12
       5909.6421  2.58950e-12
       5914.5176  2.57960e-12
       5919.3931  2.58500e-12
       5924.2690  2.59060e-12
       5929.1445  2.58370e-12
       5934.0205  2.58220e-12
       5938.8965  2.59440e-12
       5943.7725  2.56830e-12
       5948.6479  2.57080e-12
       5953.5239  2.57150e-12
       5958.3999  2.57650e-12
       5963.2764  2.59050e-12
       5968.1523  2.58860e-12
       5973.0283  2.56610e-12
       5977.9048  2.53460e-12
       5982.7808  2.53940e-12
       5987.6572  2.54260e-12
       5992.5332  2.55210e-12
       5997.4097  2.54890e-12
       6002.2861  2.53630e-12
       6007.1626  2.52230e-12
       6012.0391  2.51720e-12
       6016.9155  2.51030e-12
       6021.7925  2.47640e-12
       6026.6689  2.50470e-12
       6031.5454  2.53770e-12
       6036.4224  2.54340e-12
       6041.2988  2.55360e-12
       6046.1758  2.54610e-12
       6051.0527  2.53670e-12
       6055.9297  2.51830e-12
       6060.8062  2.51260e-12
       6065.6836  2.50580e-12
       6070.5605  2.51950e-12
       6075.4375  2.52560e-12
       6080.3145  2.50490e-12
       6085.1914  2.49910e-12
       6090.0688  2.49330e-12
       6094.9458  2.46730e-12
       6099.8232  2.46790e-12
       6104.7007  2.44730e-12
       6109.5776  2.47710e-12
       6114.4551  2.45440e-12
       6119.3325  2.44990e-12
       6124.2100  2.43770e-12
       6129.0874  2.44300e-12
       6133.9648  2.44030e-12
       6138.8428  2.40800e-12
       6143.7202  2.41900e-12
       6148.5981  2.42050e-12
       6153.4756  2.42290e-12
       6158.3535  2.39980e-12
       6163.2310  2.34900e-12
       6168.1089  2.36690e-12
       6172.9868  2.39680e-12
       6177.8647  2.42750e-12
       6182.7427  2.43520e-12
       6187.6206  2.43350e-12
       6192.4985  2.41440e-12
       6197.3765  2.44610e-12
       6202.2549  2.44830e-12
       6207.1328  2.45240e-12
       6212.0107  2.43530e-12
       6216.8892  2.40180e-12
       6221.7676  2.40020e-12
       6226.6455  2.40400e-12
       6231.5239  2.38350e-12
       6236.4023  2.40180e-12
       6241.2808  2.38060e-12
       6246.1592  2.35640e-12
       6251.0376  2.36110e-12
       6255.9160  2.34500e-12
       6260.7944  2.36590e-12
       6265.6733  2.38440e-12
       6270.5518  2.40350e-12
       6275.4307  2.41180e-12
       6280.3091  2.40010e-12
       6285.1880  2.41440e-12
       6290.0669  2.40870e-12
       6294.9453  2.40470e-12
       6299.8242  2.38180e-12
       6304.7031  2.35540e-12
       6309.5820  2.36860e-12
       6314.4609  2.34160e-12
       6319.3398  2.32710e-12
       6324.2192  2.34010e-12
       6329.0981  2.32270e-12
       6333.9771  2.30950e-12
       6338.8564  2.32060e-12
       6343.7354  2.34100e-12
       6348.6147  2.36390e-12
       6353.4937  2.35880e-12
       6358.3730  2.33660e-12
       6363.2524  2.32810e-12
       6368.1318  2.33110e-12
       6373.0112  2.35200e-12
       6377.8906  2.35980e-12
       6382.7700  2.36260e-12
       6387.6494  2.36110e-12
       6392.5288  2.33280e-12
       6397.4087  2.30930e-12
       6402.2881  2.30330e-12
       6407.1675  2.29170e-12
       6412.0474  2.29060e-12
       6416.9268  2.30050e-12
       6421.8066  2.30330e-12
       6426.6865  2.31750e-12
       6431.5664  2.30120e-12
       6436.4458  2.29610e-12
       6441.3257  2.27350e-12
       6446.2056  2.29610e-12
       6451.0854  2.27910e-12
       6455.9653  2.29070e-12
       6460.8457  2.27600e-12
       6465.7256  2.27930e-12
       6470.6055  2.27950e-12
       6475.4858  2.28410e-12
       6480.3657  2.29000e-12
       6485.2461  2.28670e-12
       6490.1260  2.27070e-12
       6495.0063  2.22840e-12
       6499.8867  2.21580e-12
       6504.7666  2.26810e-12
       6509.6470  2.28450e-12
       6514.5273  2.28930e-12
       6519.4077  2.26990e-12
       6524.2881  2.27120e-12
       6529.1685  2.26590e-12
       6534.0488  2.26560e-12
       6538.9297  2.25930e-12
       6543.8101  2.24100e-12
       6548.6904  2.20550e-12
       6553.5713  2.12760e-12
       6558.4517  2.03960e-12
       6563.3325  1.92160e-12
       6568.2129  1.98010e-12
       6573.0938  2.10570e-12
       6577.9746  2.16830e-12
       6582.8550  2.20840e-12
       6587.7358  2.21970e-12
       6592.6167  2.19310e-12
       6597.4976  2.21230e-12
       6602.3784  2.22190e-12
       6607.2593  2.22790e-12
       6612.1401  2.23670e-12
       6617.0215  2.24170e-12
       6621.9023  2.23800e-12
       6626.7832  2.23930e-12
       6631.6646  2.22810e-12
       6636.5454  2.21180e-12
       6641.4268  2.21690e-12
       6646.3076  2.21870e-12
       6651.1890  2.23450e-12
       6656.0698  2.23320e-12
       6660.9512  2.23290e-12
       6665.8325  2.22320e-12
       6670.7139  2.20570e-12
       6675.5952  2.21980e-12
       6680.4766  2.21030e-12
       6685.3579  2.22650e-12
       6690.2393  2.21830e-12
       6695.1206  2.21840e-12
       6700.0020  2.19090e-12
       6704.8833  2.19970e-12
       6709.7651  2.19060e-12
       6714.6465  2.18870e-12
       6719.5278  2.16330e-12
       6724.4097  2.16630e-12
       6729.2910  2.18320e-12
       6734.1729  2.19140e-12
       6739.0542  2.18780e-12
       6743.9360  2.17800e-12
       6748.8179  2.15580e-12
       6753.6997  2.17410e-12
       6758.5811  2.16870e-12
       6763.4629  2.16050e-12
       6768.3447  2.16950e-12
       6773.2266  2.16280e-12
       6778.1084  2.18050e-12
       6782.9902  2.16960e-12
       6787.8726  2.16510e-12
       6792.7544  2.17320e-12
       6797.6362  2.15900e-12
       6802.5181  2.16100e-12
       6807.4004  2.16150e-12
       6812.2822  2.15020e-12
       6817.1641  2.14700e-12
       6822.0464  2.14740e-12
       6826.9282  2.14930e-12
       6831.8105  2.13260e-12
       6836.6929  2.13150e-12
       6841.5747  2.12190e-12
       6846.4570  2.11320e-12
       6851.3394  2.11650e-12
       6856.2217  2.11500e-12
       6861.1040  2.10920e-12
       6865.9863  2.11560e-12
       6870.8687  2.13900e-12
       6875.7510  2.12240e-12
       6880.6333  2.10930e-12
       6885.5156  2.11090e-12
       6890.3979  2.11880e-12
       6895.2803  2.12230e-12
       6900.1626  2.12370e-12
       6905.0454  2.11430e-12
       6909.9277  2.11510e-12
       6914.8105  2.09710e-12
       6919.6929  2.09640e-12
       6924.5752  2.09730e-12
       6929.4580  2.09460e-12
       6934.3408  2.08810e-12
       6939.2231  2.09340e-12
       6944.1060  2.08710e-12
       6948.9888  2.07140e-12
       6953.8711  2.08600e-12
       6958.7539  2.08730e-12
       6963.6367  2.09120e-12
       6968.5195  2.08110e-12
       6973.4023  2.07130e-12
       6978.2852  2.04220e-12
       6983.1680  2.05320e-12
       6988.0508  2.05840e-12
       6992.9336  2.07500e-12
       6997.8164  2.04780e-12
       7002.6992  2.03590e-12
       7007.5820  2.03130e-12
       7012.4653  2.02790e-12
       7017.3481  2.02570e-12
       7022.2310  2.03240e-12
       7027.1143  2.02160e-12
       7031.9971  2.03050e-12
       7036.8804  2.03060e-12
       7041.7632  2.03620e-12
       7046.6465  2.03520e-12
       7051.5293  2.05030e-12
       7056.4126  2.03870e-12
       7061.2954  2.03180e-12
       7066.1787  2.02880e-12
       7071.0620  2.01610e-12
       7075.9453  2.02840e-12
       7080.8281  2.02840e-12
       7085.7114  2.01590e-12
       7090.5947  2.00580e-12
       7095.4780  2.01850e-12
       7100.3613  2.01410e-12
       7105.2446  2.01470e-12
       7110.1279  2.00890e-12
       7115.0112  2.00030e-12
       7119.8945  2.00060e-12
       7124.7778  1.99350e-12
       7129.6611  1.99460e-12
       7134.5449  1.98590e-12
       7139.4282  1.98860e-12
       7144.3115  1.99710e-12
       7149.1948  1.97820e-12
       7154.0786  1.98310e-12
       7158.9619  1.99000e-12
       7163.8457  1.97100e-12
       7168.7290  1.96370e-12
       7173.6123  1.97140e-12
       7178.4961  1.96480e-12
       7183.3794  1.95140e-12
       7188.2632  1.92460e-12
       7193.1470  1.94280e-12
       7198.0303  1.93360e-12
       7202.9141  1.93530e-12
       7207.7979  1.93110e-12
       7212.6812  1.93810e-12
       7217.5649  1.94790e-12
       7222.4487  1.94130e-12
       7227.3325  1.93370e-12
       7232.2163  1.95220e-12
       7237.0996  1.96150e-12
       7241.9834  1.94370e-12
       7246.8672  1.94190e-12
       7251.7510  1.93820e-12
       7256.6348  1.94720e-12
       7261.5186  1.93660e-12
       7266.4023  1.93280e-12
       7271.2861  1.92990e-12
       7276.1699  1.93510e-12
       7281.0542  1.91540e-12
       7285.9380  1.89690e-12
       7290.8218  1.89750e-12
       7295.7056  1.90450e-12
       7300.5894  1.91640e-12
       7305.4736  1.90840e-12
       7310.3574  1.90860e-12
       7315.2412  1.91450e-12
       7320.1255  1.91840e-12
       7325.0093  1.91080e-12
       7329.8931  1.90900e-12
       7334.7773  1.92390e-12
       7339.6611  1.91710e-12
       7344.5454  1.90310e-12
       7349.4292  1.89670e-12
       7354.3135  1.89590e-12
       7359.1973  1.90720e-12
       7364.0815  1.89570e-12
       7368.9653  1.89520e-12
       7373.8496  1.88730e-12
       7378.7339  1.87320e-12
       7383.6177  1.87090e-12
       7388.5020  1.85020e-12
       7393.3862  1.85410e-12
       7398.2700  1.85190e-12
       7403.1543  1.84790e-12
       7408.0386  1.84330e-12
       7412.9229  1.83410e-12
       7417.8071  1.84000e-12
       7422.6909  1.83000e-12
       7427.5752  1.84830e-12
       7432.4595  1.85930e-12
       7437.3438  1.86320e-12
       7442.2280  1.84450e-12
       7447.1123  1.83960e-12
       7451.9966  1.84640e-12
       7456.8809  1.85090e-12
       7461.7651  1.84490e-12
       7466.6494  1.84990e-12
       7471.5337  1.85290e-12
       7476.4180  1.85420e-12
       7481.3022  1.84410e-12
       7486.1865  1.83780e-12
       7491.0708  1.82900e-12
       7495.9551  1.81530e-12
       7500.8398  1.82510e-12
       7505.7241  1.82150e-12
       7510.6084  1.80870e-12
       7515.4927  1.81950e-12
       7520.3770  1.82770e-12
       7525.2617  1.81300e-12
       7530.1460  1.82550e-12
       7535.0303  1.82260e-12
       7539.9146  1.82250e-12
       7544.7993  1.82220e-12
       7549.6836  1.82850e-12
       7554.5679  1.81430e-12
       7559.4526  1.80760e-12
       7564.3369  1.81490e-12
       7569.2212  1.80270e-12
       7574.1060  1.79860e-12
       7578.9902  1.80530e-12
       7583.8745  1.79880e-12
       7588.7593  1.79280e-12
       7593.6436  1.80480e-12
       7598.5283  1.80840e-12
       7603.4126  1.79040e-12
       7608.2974  1.78610e-12
       7613.1816  1.79170e-12
       7618.0664  1.77740e-12
       7622.9507  1.78110e-12
       7627.8354  1.79110e-12
       7632.7197  1.79220e-12
       7637.6045  1.78960e-12
       7642.4888  1.78850e-12
       7647.3735  1.77930e-12
       7652.2578  1.76700e-12
       7657.1426  1.74540e-12
       7662.0269  1.72410e-12
       7666.9116  1.72490e-12
       7671.7964  1.75890e-12
       7676.6807  1.77110e-12
       7681.5654  1.76060e-12
       7686.4497  1.75880e-12
       7691.3345  1.74980e-12
       7696.2192  1.74990e-12
       7701.1035  1.74310e-12
       7705.9883  1.76250e-12
       7710.8730  1.74920e-12
       7715.7573  1.73210e-12
       7720.6421  1.74150e-12
       7725.5269  1.74310e-12
       7730.4111  1.75020e-12
       7735.2959  1.75660e-12
       7740.1807  1.73750e-12
       7745.0654  1.72720e-12
       7749.9497  1.72600e-12
       7754.8345  1.73590e-12
       7759.7192  1.75250e-12
       7764.6035  1.74490e-12
       7769.4883  1.73800e-12
       7774.3730  1.72520e-12
       7779.2578  1.72700e-12
       7784.1421  1.71010e-12
       7789.0269  1.71570e-12
       7793.9116  1.72040e-12
       7798.7964  1.72350e-12
       7803.6807  1.71970e-12
       7808.5654  1.72470e-12
       7813.4502  1.72360e-12
       7818.3350  1.72950e-12
       7823.2192  1.72690e-12
       7828.1040  1.71240e-12
       7832.9888  1.70520e-12
       7837.8735  1.70330e-12
       7842.7578  1.71190e-12
       7847.6426  1.70550e-12
       7852.5273  1.70380e-12
       7857.4121  1.70960e-12
       7862.2969  1.71890e-12
       7867.1812  1.71600e-12
       7872.0659  1.70690e-12
       7876.9507  1.70320e-12
       7881.8354  1.69560e-12
       7886.7197  1.69010e-12
       7891.6045  1.69340e-12
       7896.4893  1.71170e-12
       7901.3740  1.70950e-12
       7906.2583  1.71000e-12
       7911.1431  1.68920e-12
       7916.0278  1.68340e-12
       7920.9126  1.68350e-12
       7925.7969  1.67250e-12
       7930.6816  1.66700e-12
       7935.5664  1.64900e-12
       7940.4512  1.64600e-12
       7945.3354  1.63490e-12
       7950.2202  1.65100e-12
       7955.1050  1.67080e-12
       7959.9897  1.66740e-12
       7964.8740  1.66670e-12
       7969.7588  1.65840e-12
       7974.6436  1.65920e-12
       7979.5278  1.67450e-12
       7984.4126  1.67570e-12
       7989.2974  1.66880e-12
       7994.1816  1.66110e-12
       7999.0664  1.64370e-12
       8003.9512  1.64020e-12
       8008.8354  1.64310e-12
       8013.7202  1.65070e-12
       8018.6050  1.65020e-12
       8023.4893  1.64700e-12
       8028.3740  1.63930e-12
       8033.2588  1.62640e-12
       8038.1431  1.62990e-12
       8043.0278  1.63680e-12
       8047.9121  1.61070e-12
       8052.7969  1.61960e-12
       8057.6816  1.62130e-12
       8062.5659  1.63110e-12
       8067.4507  1.62980e-12
       8072.3350  1.62190e-12
       8077.2197  1.61130e-12
       8082.1040  1.61490e-12
       8086.9888  1.60060e-12
       8091.8730  1.59590e-12
       8096.7578  1.60280e-12
       8101.6421  1.59030e-12
       8106.5269  1.61190e-12
       8111.4111  1.61420e-12
       8116.2959  1.61480e-12
       8121.1802  1.62600e-12
       8126.0649  1.61550e-12
       8130.9492  1.61060e-12
       8135.8335  1.60900e-12
       8140.7183  1.59920e-12
       8145.6025  1.59840e-12
       8150.4868  1.59570e-12
       8155.3716  1.59830e-12
       8160.2559  1.60450e-12
       8165.1401  1.59840e-12
       8170.0249  1.60020e-12
       8174.9092  1.58020e-12
       8179.7935  1.57120e-12
       8184.6777  1.56260e-12
       8189.5625  1.55640e-12
       8194.4463  1.54130e-12
       8199.3311  1.54870e-12
       8204.2158  1.55390e-12
       8209.0996  1.55150e-12
       8213.9844  1.54410e-12
       8218.8682  1.54360e-12
       8223.7529  1.54350e-12
       8228.6367  1.56090e-12
       8233.5215  1.55050e-12
       8238.4062  1.55010e-12
       8243.2900  1.56160e-12
       8248.1748  1.55180e-12
       8253.0586  1.55530e-12
       8257.9434  1.55930e-12
       8262.8271  1.56310e-12
       8267.7119  1.54960e-12
       8272.5957  1.54810e-12
       8277.4795  1.55110e-12
       8282.3643  1.55440e-12
       8287.2480  1.55120e-12
       8292.1328  1.54010e-12
       8297.0166  1.53620e-12
       8301.9014  1.53880e-12
       8306.7852  1.54150e-12
       8311.6689  1.53180e-12
       8316.5537  1.52840e-12
       8321.4375  1.52710e-12
       8326.3213  1.51330e-12
       8331.2061  1.49560e-12
       8336.0898  1.49950e-12
       8340.9736  1.49820e-12
       8345.8584  1.49850e-12
       8350.7422  1.50480e-12
       8355.6260  1.51430e-12
       8360.5107  1.51070e-12
       8365.3945  1.50560e-12
       8370.2783  1.51210e-12
       8375.1621  1.51500e-12
       8380.0459  1.51390e-12
       8384.9307  1.51340e-12
       8389.8145  1.50950e-12
       8394.6982  1.51390e-12
       8399.5820  1.51780e-12
       8404.4658  1.51010e-12
       8409.3506  1.50920e-12
       8414.2344  1.50510e-12
       8419.1182  1.50340e-12
       8424.0020  1.50210e-12
       8428.8857  1.49840e-12
       8433.7695  1.49780e-12
       8438.6533  1.48160e-12
       8443.5371  1.47450e-12
       8448.4209  1.47910e-12
       8453.3047  1.48120e-12
       8458.1885  1.48180e-12
       8463.0723  1.49090e-12
       8467.9561  1.48510e-12
       8472.8398  1.48320e-12
       8477.7236  1.48990e-12
       8482.6074  1.47680e-12
       8487.4912  1.47570e-12
       8492.3750  1.45750e-12
       8497.2588  1.40540e-12
       8502.1426  1.37810e-12
       8507.0254  1.43200e-12
       8511.9092  1.45070e-12
       8516.7930  1.45380e-12
       8521.6768  1.44580e-12
       8526.5605  1.43480e-12
       8531.4434  1.39470e-12
       8536.3271  1.36330e-12
       8541.2109  1.29980e-12
       8546.0947  1.23240e-12
       8550.9775  1.35120e-12
       8555.8613  1.36650e-12
       8560.7451  1.41530e-12
       8565.6279  1.44930e-12
       8570.5117  1.45150e-12
       8575.3955  1.45550e-12
       8580.2783  1.45300e-12
       8585.1621  1.45050e-12
       8590.0449  1.44750e-12
       8594.9287  1.44700e-12
       8599.8115  1.42820e-12
       8604.6953  1.42820e-12
       8609.5781  1.43550e-12
       8614.4619  1.42900e-12
       8619.3447  1.42660e-12
       8624.2285  1.42480e-12
       8629.1113  1.42670e-12
       8633.9951  1.40980e-12
       8638.8779  1.41580e-12
       8643.7607  1.41620e-12
       8648.6445  1.39230e-12
       8653.5273  1.36290e-12
       8658.4102  1.30180e-12
       8663.2939  1.25120e-12
       8668.1768  1.26740e-12
       8673.0596  1.35070e-12
       8677.9424  1.36340e-12
       8682.8262  1.39020e-12
       8687.7090  1.39210e-12
       8692.5918  1.39960e-12
       8697.4746  1.40610e-12
       8702.3574  1.40520e-12
       8707.2402  1.41240e-12
       8712.1240  1.40670e-12
       8717.0068  1.40330e-12
       8721.8896  1.40670e-12
       8726.7725  1.40870e-12
       8731.6553  1.39360e-12
       8736.5381  1.39220e-12
       8741.4209  1.38760e-12
       8746.3037  1.38900e-12
       8751.1865  1.37340e-12
       8756.0693  1.37660e-12
       8760.9512  1.38230e-12
       8765.8340  1.38110e-12
       8770.7168  1.38550e-12
       8775.5996  1.37600e-12
       8780.4824  1.38890e-12
       8785.3643  1.38600e-12
       8790.2471  1.38370e-12
       8795.1299  1.36140e-12
       8800.0127  1.37140e-12
       8804.8945  1.36300e-12
       8809.7773  1.36000e-12
       8814.6602  1.36770e-12
       8819.5420  1.37500e-12
       8824.4248  1.36720e-12
       8829.3066  1.37300e-12
       8834.1895  1.37790e-12
       8839.0723  1.37370e-12
       8843.9541  1.37740e-12
       8848.8369  1.37570e-12
       8853.7188  1.36360e-12
       8858.6006  1.35690e-12
       8863.4834  1.34830e-12
       8868.3652  1.34710e-12
       8873.2480  1.35400e-12
       8878.1299  1.36290e-12
       8883.0117  1.36350e-12
       8887.8936  1.36060e-12
       8892.7764  1.35090e-12
       8897.6582  1.34750e-12
       8902.5400  1.34250e-12
       8907.4219  1.35120e-12
       8912.3037  1.36100e-12
       8917.1865  1.36290e-12
       8922.0684  1.36940e-12
       8926.9502  1.35010e-12
       8931.8320  1.33840e-12
       8936.7139  1.34030e-12
       8941.5957  1.33620e-12
       8946.4775  1.33660e-12
       8951.3594  1.33950e-12
       8956.2412  1.34970e-12
       8961.1230  1.34960e-12
       8966.0049  1.34670e-12
       8970.8857  1.33460e-12
       8975.7676  1.33140e-12
       8980.6494  1.33240e-12
       8985.5312  1.33540e-12
       8990.4131  1.33560e-12
       8995.2939  1.32470e-12
       9000.1758  1.31420e-12
       9005.0576  1.29450e-12
       9009.9385  1.28670e-12
       9014.8203  1.28920e-12
       9019.7012  1.29790e-12
       9024.5830  1.30250e-12
       9029.4639  1.31670e-12
       9034.3457  1.33060e-12
       9039.2266  1.32670e-12
       9044.1084  1.32530e-12
       9048.9893  1.31800e-12
       9053.8711  1.30910e-12
       9058.7520  1.30880e-12
       9063.6328  1.30310e-12
       9068.5146  1.30830e-12
       9073.3955  1.32370e-12
       9078.2764  1.30750e-12
       9083.1572  1.29940e-12
       9088.0381  1.28410e-12
       9092.9199  1.27280e-12
       9097.8008  1.28310e-12
       9102.6816  1.29120e-12
       9107.5625  1.29110e-12
       9112.4434  1.28920e-12
       9117.3242  1.29210e-12
       9122.2051  1.28400e-12
       9127.0859  1.28800e-12
       9131.9668  1.30140e-12
       9136.8477  1.29860e-12
       9141.7275  1.29550e-12
       9146.6084  1.30020e-12
       9151.4893  1.29130e-12
       9156.3701  1.30820e-12
       9161.2500  1.30560e-12
       9166.1309  1.29020e-12
       9171.0117  1.27890e-12
       9175.8916  1.27590e-12
       9180.7725  1.27230e-12
       9185.6533  1.27780e-12
       9190.5332  1.28690e-12
       9195.4141  1.28150e-12
       9200.2939  1.28040e-12
       9205.1738  1.26420e-12
       9210.0547  1.24830e-12
       9214.9346  1.23360e-12
       9219.8154  1.23150e-12
       9224.6953  1.23290e-12
       9229.5752  1.22450e-12
       9234.4551  1.23520e-12
       9239.3359  1.23900e-12
       9244.2158  1.22700e-12
       9249.0957  1.22610e-12
       9253.9756  1.22930e-12
       9258.8555  1.22450e-12
       9263.7354  1.23440e-12
       9268.6152  1.23660e-12
       9273.4951  1.24100e-12
       9278.3750  1.24890e-12
       9283.2549  1.24680e-12
       9288.1348  1.25580e-12
       9293.0146  1.25650e-12
       9297.8936  1.25640e-12
       9302.7734  1.25460e-12
       9307.6533  1.25310e-12
       9312.5332  1.23940e-12
       9317.4121  1.23210e-12
       9322.2920  1.23260e-12
       9327.1719  1.23820e-12
       9332.0508  1.24070e-12
       9336.9307  1.23730e-12
       9341.8096  1.23110e-12
       9346.6895  1.23090e-12
       9351.5684  1.23470e-12
       9356.4473  1.23250e-12
       9361.3271  1.23080e-12
       9366.2061  1.23050e-12
       9371.0850  1.22430e-12
       9375.9639  1.22360e-12
       9380.8438  1.22270e-12
       9385.7227  1.22550e-12
       9390.6016  1.22910e-12
       9395.4805  1.22060e-12
       9400.3594  1.21450e-12
       9405.2383  1.20060e-12
       9410.1172  1.19970e-12
       9414.9961  1.17880e-12
       9419.8750  1.17680e-12
       9424.7539  1.19000e-12
       9429.6328  1.20100e-12
       9434.5107  1.20660e-12
       9439.3896  1.20120e-12
       9444.2686  1.20080e-12
       9449.1475  1.19790e-12
       9454.0254  1.19900e-12
       9458.9043  1.19990e-12
       9463.7822  1.20140e-12
       9468.6611  1.20030e-12
       9473.5391  1.20500e-12
       9478.4180  1.20680e-12
       9483.2959  1.20800e-12
       9488.1748  1.20760e-12
       9493.0527  1.19380e-12
       9497.9307  1.19720e-12
       9502.8086  1.19140e-12
       9507.6875  1.19010e-12
       9512.5654  1.19120e-12
       9517.4434  1.19250e-12
       9522.3213  1.18050e-12
       9527.1992  1.18210e-12
       9532.0771  1.18180e-12
       9536.9551  1.16570e-12
       9541.8330  1.16780e-12
       9546.7109  1.15120e-12
       9551.5889  1.14350e-12
       9556.4668  1.14870e-12
       9561.3438  1.17470e-12
       9566.2217  1.17320e-12
       9571.0996  1.17150e-12
       9575.9766  1.16830e-12
       9580.8545  1.16310e-12
       9585.7324  1.16620e-12
       9590.6094  1.16760e-12
       9595.4873  1.16150e-12
       9600.3643  1.16490e-12
       9605.2412  1.15130e-12
       9610.1191  1.14950e-12
       9614.9961  1.17160e-12
       9619.8730  1.16130e-12
       9624.7510  1.16350e-12
       9629.6279  1.16270e-12
       9634.5049  1.16070e-12
       9639.3818  1.15050e-12
       9644.2588  1.14750e-12
       9649.1357  1.14090e-12
       9654.0127  1.14530e-12
       9658.8896  1.14900e-12
       9663.7666  1.14970e-12
       9668.6436  1.15310e-12
       9673.5205  1.15000e-12
       9678.3965  1.14060e-12
       9683.2734  1.14410e-12
       9688.1504  1.14630e-12
       9693.0264  1.14420e-12
       9697.9033  1.15220e-12
       9702.7793  1.15590e-12
       9707.6562  1.13770e-12
       9712.5322  1.14260e-12
       9717.4092  1.13300e-12
       9722.2852  1.13270e-12
       9727.1621  1.12970e-12
       9732.0381  1.13260e-12
       9736.9141  1.12540e-12
       9741.7900  1.12690e-12
       9746.6660  1.12610e-12
       9751.5420  1.13260e-12
       9756.4189  1.12400e-12
       9761.2949  1.12960e-12
       9766.1699  1.12710e-12
       9771.0459  1.12910e-12
       9775.9219  1.12690e-12
       9780.7979  1.13110e-12
       9785.6738  1.13310e-12
       9790.5498  1.13880e-12
       9795.4248  1.12460e-12
       9800.3008  1.12460e-12
       9805.1758  1.12320e-12
       9810.0518  1.12510e-12
       9814.9277  1.11520e-12
       9819.8027  1.11460e-12
       9824.6777  1.10540e-12
       9829.5537  1.11030e-12
       9834.4287  1.11600e-12
       9839.3037  1.11250e-12
       9844.1797  1.11070e-12
       9849.0547  1.11410e-12
       9853.9297  1.11240e-12
       9858.8047  1.11140e-12
       9863.6797  1.12240e-12
       9868.5547  1.10150e-12
       9873.4297  1.10230e-12
       9878.3047  1.11780e-12
       9883.1797  1.11830e-12
       9888.0537  1.10770e-12
       9892.9287  1.10640e-12
       9897.8037  1.10660e-12
       9902.6777  1.10420e-12
       9907.5527  1.10140e-12
       9912.4277  1.09250e-12
       9917.3018  1.08920e-12
       9922.1758  1.09760e-12
       9927.0508  1.09770e-12
       9931.9248  1.09080e-12
       9936.7988  1.08630e-12
       9941.6738  1.09540e-12
       9946.5479  1.09360e-12
       9951.4219  1.08420e-12
       9956.2959  1.08820e-12
       9961.1699  1.09130e-12
       9966.0439  1.08850e-12
       9970.9180  1.08950e-12
       9975.7920  1.08670e-12
       9980.6660  1.08190e-12
       9985.5400  1.07700e-12
       9990.4131  1.07190e-12
       9995.2871  1.08500e-12
       10000.161  1.08080e-12
       10005.034  1.09380e-12
       10009.908  1.08140e-12
       10014.781  1.08520e-12
       10019.655  1.07460e-12
       10024.528  1.07450e-12
       10029.402  1.06880e-12
       10034.275  1.05910e-12
       10039.148  1.05230e-12
       10044.021  1.04370e-12
       10048.895  1.02690e-12
       10053.768  1.02620e-12
       10058.641  1.02950e-12
       10063.514  1.04210e-12
       10068.387  1.03470e-12
       10073.260  1.04140e-12
       10078.133  1.04340e-12
       10083.006  1.03570e-12
       10087.878  1.04020e-12
       10092.751  1.05500e-12
       10097.624  1.06030e-12
       10102.496  1.04610e-12
       10107.369  1.04860e-12
       10112.241  1.05560e-12
       10117.114  1.05240e-12
       10124.905  1.05019e-12
       10135.035  1.04714e-12
       10145.176  1.04249e-12
       10155.326  1.04023e-12
       10165.486  1.04134e-12
       10175.656  1.04176e-12
       10185.838  1.03750e-12
       10196.028  1.03131e-12
       10206.229  1.03042e-12
       10216.441  1.02644e-12
       10226.662  1.02570e-12
       10236.894  1.02829e-12
       10247.137  1.02796e-12
       10257.389  1.02551e-12
       10267.651  1.02324e-12
       10277.924  1.02034e-12
       10288.207  1.01551e-12
       10298.500  1.01281e-12
       10308.804  1.01145e-12
       10319.117  1.00705e-12
       10329.442  9.99325e-13
       10339.776  9.95365e-13
       10350.121  9.94982e-13
       10360.477  9.96528e-13
       10370.842  9.92230e-13
       10381.219  9.90169e-13
       10391.605  9.90919e-13
       10402.002  9.89897e-13
       10412.408  9.89874e-13
       10422.826  9.88477e-13
       10433.254  9.86679e-13
       10443.692  9.83158e-13
       10454.142  9.73732e-13
       10464.601  9.69273e-13
       10475.070  9.73676e-13
       10485.551  9.76067e-13
       10496.041  9.74510e-13
       10506.543  9.72565e-13
       10517.055  9.70830e-13
       10527.577  9.66609e-13
       10538.110  9.63541e-13
       10548.653  9.64494e-13
       10559.208  9.63425e-13
       10569.771  9.59545e-13
       10580.347  9.49175e-13
       10590.933  9.42176e-13
       10601.528  9.41307e-13
       10612.135  9.42300e-13
       10622.753  9.46295e-13
       10633.381  9.46583e-13
       10644.020  9.46081e-13
       10654.669  9.39642e-13
       10665.328  9.31792e-13
       10676.000  9.26669e-13
       10686.681  9.10301e-13
       10697.373  9.08580e-13
       10708.076  9.21125e-13
       10718.789  9.22668e-13
       10729.513  9.16560e-13
       10740.248  9.15330e-13
       10750.994  9.12134e-13
       10761.750  9.15881e-13
       10772.518  9.17958e-13
       10783.295  9.08971e-13
       10794.083  9.06590e-13
       10804.883  9.09260e-13
       10815.693  9.02171e-13
       10826.515  8.92733e-13
       10837.346  8.93216e-13
       10848.189  8.99199e-13
       10859.043  8.95514e-13
       10869.907  8.81238e-13
       10880.782  8.79603e-13
       10891.669  8.84749e-13
       10902.566  8.89082e-13
       10913.475  8.84835e-13
       10924.394  8.72676e-13
       10935.322  8.48108e-13
       10946.264  8.41900e-13
       10957.216  8.57863e-13
       10968.178  8.64212e-13
       10979.151  8.61811e-13
       10990.136  8.66111e-13
       11001.132  8.75087e-13
       11012.139  8.70366e-13
       11023.155  8.65556e-13
       11034.185  8.69777e-13
       11045.225  8.70832e-13
       11056.274  8.69412e-13
       11067.336  8.67735e-13
       11078.409  8.66130e-13
       11089.493  8.64694e-13
       11100.588  8.63056e-13
       11111.694  8.58788e-13
       11122.812  8.53181e-13
       11133.940  8.51512e-13
       11145.079  8.51803e-13
       11156.230  8.50376e-13
       11167.393  8.50643e-13
       11178.565  8.46813e-13
       11189.750  8.37674e-13
       11200.945  8.36017e-13
       11212.150  8.40632e-13
       11223.369  8.42974e-13
       11234.599  8.40647e-13
       11245.838  8.32668e-13
       11257.090  8.25577e-13
       11268.352  8.28971e-13
       11279.627  8.28427e-13
       11290.912  8.21956e-13
       11302.208  8.19783e-13
       11313.516  8.20064e-13
       11324.835  8.19004e-13
       11336.166  8.17939e-13
       11347.508  8.19659e-13
       11358.859  8.19883e-13
       11370.225  8.15884e-13
       11381.601  8.08593e-13
       11392.988  8.03921e-13
       11404.387  7.99757e-13
       11415.797  8.00538e-13
       11427.218  8.02223e-13
       11438.651  8.01482e-13
       11450.096  8.02648e-13
       11461.552  8.05370e-13
       11473.019  8.02849e-13
       11484.497  7.96190e-13
       11495.987  7.92298e-13
       11507.489  7.92884e-13
       11519.003  7.94186e-13
       11530.527  7.94847e-13
       11542.062  7.94936e-13
       11553.611  7.93489e-13
       11565.171  7.90366e-13
       11576.742  7.85226e-13
       11588.324  7.76073e-13
       11599.918  7.67915e-13
       11611.523  7.65441e-13
       11623.141  7.70217e-13
       11634.771  7.70961e-13
       11646.411  7.68659e-13
       11658.062  7.68266e-13
       11669.727  7.68121e-13
       11681.402  7.67234e-13
       11693.090  7.62921e-13
       11704.789  7.64684e-13
       11716.499  7.67927e-13
       11728.222  7.67037e-13
       11739.956  7.61854e-13
       11751.701  7.52316e-13
       11763.459  7.50774e-13
       11775.229  7.51460e-13
       11787.010  7.50856e-13
       11798.803  7.53760e-13
       11810.606  7.53178e-13
       11822.423  7.43440e-13
       11834.252  7.34750e-13
       11846.093  7.40421e-13
       11857.944  7.45594e-13
       11869.809  7.42717e-13
       11881.684  7.31623e-13
       11893.570  7.27987e-13
       11905.471  7.36089e-13
       11917.382  7.39944e-13
       11929.306  7.39046e-13
       11941.240  7.36297e-13
       11953.188  7.31921e-13
       11965.146  7.26521e-13
       11977.118  7.14971e-13
       11989.102  7.07533e-13
       12001.096  7.15561e-13
       12013.104  7.23155e-13
       12025.122  7.17146e-13
       12037.153  7.10627e-13
       12049.197  7.16692e-13
       12061.252  7.19850e-13
       12073.319  7.15162e-13
       12085.398  7.06211e-13
       12097.490  7.03344e-13
       12109.594  7.02293e-13
       12121.709  7.07136e-13
       12133.837  7.10258e-13
       12145.977  7.10599e-13
       12158.129  7.09975e-13
       12170.293  7.07101e-13
       12182.470  7.03639e-13
       12194.658  7.02086e-13
       12206.859  7.02117e-13
       12219.071  7.00350e-13
       12231.297  6.98403e-13
       12243.534  6.97825e-13
       12255.783  6.95532e-13
       12268.046  6.89634e-13
       12280.320  6.88313e-13
       12292.606  6.90763e-13
       12304.904  6.90064e-13
       12317.216  6.88327e-13
       12329.540  6.86672e-13
       12341.875  6.85228e-13
       12354.223  6.84636e-13
       12366.583  6.84248e-13
       12378.956  6.82074e-13
       12391.342  6.77620e-13
       12403.739  6.75672e-13
       12416.148  6.73730e-13
       12428.570  6.68577e-13
       12441.006  6.68863e-13
       12453.453  6.71736e-13
       12465.913  6.70909e-13
       12478.385  6.69745e-13
       12490.869  6.69244e-13
       12503.367  6.67627e-13
       12515.877  6.64521e-13
       12528.398  6.62061e-13
       12540.933  6.61078e-13
       12553.480  6.58713e-13
       12566.040  6.56012e-13
       12578.612  6.54414e-13
       12591.197  6.53330e-13
       12603.794  6.52547e-13
       12616.405  6.50389e-13
       12629.027  6.49145e-13
       12641.662  6.47536e-13
       12654.311  6.47205e-13
       12666.972  6.46540e-13
       12679.645  6.43074e-13
       12692.330  6.42621e-13
       12705.029  6.43864e-13
       12717.740  6.43002e-13
       12730.465  6.41073e-13
       12743.201  6.39327e-13
       12755.951  6.38181e-13
       12768.713  6.36573e-13
       12781.488  6.33165e-13
       12794.276  6.25240e-13
       12807.076  6.04604e-13
       12819.891  5.82125e-13
       12832.716  5.94140e-13
       12845.556  6.14162e-13
       12858.407  6.20729e-13
       12871.271  6.22107e-13
       12884.150  6.20803e-13
       12897.041  6.17274e-13
       12909.943  6.16335e-13
       12922.860  6.18274e-13
       12935.790  6.17533e-13
       12948.731  6.17179e-13
       12961.688  6.16342e-13
       12974.656  6.13743e-13
       12987.637  6.12897e-13
       13000.631  6.12265e-13
       13013.638  6.09234e-13
       13026.658  6.04346e-13
       13039.691  6.02260e-13
       13052.736  6.04476e-13
       13065.796  6.05343e-13
       13078.868  6.04195e-13
       13091.954  6.01176e-13
       13105.053  5.97020e-13
       13118.164  5.93751e-13
       13131.289  5.91731e-13
       13144.426  5.90166e-13
       13157.578  5.87967e-13
       13170.742  5.89904e-13
       13183.920  5.90596e-13
       13197.109  5.91342e-13
       13210.313  5.90655e-13
       13223.530  5.89961e-13
       13236.760  5.89046e-13
       13250.004  5.86843e-13
       13263.261  5.83380e-13
       13276.531  5.79691e-13
       13289.813  5.74542e-13
       13303.110  5.74216e-13
       13316.420  5.73485e-13
       13329.742  5.73492e-13
       13343.078  5.76316e-13
       13356.428  5.76240e-13
       13369.791  5.74952e-13
       13383.168  5.71524e-13
       13396.558  5.68927e-13
       13409.961  5.70138e-13
       13423.378  5.69814e-13
       13436.808  5.68574e-13
       13450.252  5.67905e-13
       13463.709  5.66872e-13
       13477.179  5.65514e-13
       13490.663  5.62009e-13
       13504.160  5.59339e-13
       13517.671  5.60458e-13
       13531.195  5.60376e-13
       13544.734  5.56759e-13
       13558.285  5.52253e-13
       13571.850  5.51504e-13
       13585.429  5.51925e-13
       13599.021  5.51393e-13
       13612.627  5.50990e-13
       13626.246  5.47012e-13
       13639.879  5.45116e-13
       13653.525  5.46141e-13
       13667.187  5.44483e-13
       13680.860  5.41485e-13
       13694.547  5.38571e-13
       13708.250  5.37721e-13
       13721.964  5.38347e-13
       13735.693  5.39330e-13
       13749.436  5.38357e-13
       13763.192  5.36695e-13
       13776.962  5.36554e-13
       13790.746  5.36072e-13
       13804.543  5.34929e-13
       13818.354  5.32496e-13
       13832.180  5.30576e-13
       13846.020  5.30169e-13
       13859.872  5.29022e-13
       13873.739  5.27925e-13
       13887.619  5.27057e-13
       13901.514  5.25084e-13
       13915.422  5.25112e-13
       13929.345  5.25064e-13
       13943.281  5.23176e-13
       13957.231  5.21820e-13
       13971.195  5.21653e-13
       13985.174  5.19608e-13
       13999.166  5.14720e-13
       14013.172  5.13559e-13
       14027.192  5.13998e-13
       14041.227  5.13132e-13
       14055.274  5.12819e-13
       14069.337  5.11642e-13
       14083.413  5.10130e-13
       14097.504  5.09084e-13
       14111.607  5.04406e-13
       14125.727  5.01596e-13
       14139.859  5.04316e-13
       14154.006  5.05684e-13
       14168.168  5.05035e-13
       14182.343  5.04174e-13
       14196.532  5.01060e-13
       14210.736  4.96890e-13
       14224.953  4.94171e-13
       14239.186  4.93783e-13
       14253.432  4.94917e-13
       14267.693  4.95402e-13
       14281.968  4.92366e-13
       14296.256  4.89040e-13
       14310.559  4.90633e-13
       14324.878  4.91760e-13
       14339.209  4.91350e-13
       14353.556  4.91668e-13
       14367.916  4.90835e-13
       14382.291  4.88260e-13
       14396.681  4.81101e-13
       14411.085  4.76458e-13
       14425.503  4.77252e-13
       14439.936  4.78533e-13
       14454.384  4.80197e-13
       14468.844  4.79778e-13
       14483.320  4.77909e-13
       14497.812  4.75142e-13
       14512.315  4.72698e-13
       14526.836  4.72659e-13
       14541.369  4.70052e-13
       14555.918  4.67852e-13
       14570.482  4.70005e-13
       14585.060  4.72973e-13
       14599.652  4.72825e-13
       14614.259  4.70268e-13
       14628.881  4.67384e-13
       14643.517  4.65328e-13
       14658.168  4.64387e-13
       14672.832  4.65251e-13
       14687.512  4.64098e-13
       14702.207  4.60793e-13
       14716.918  4.57553e-13
       14731.642  4.55954e-13
       14746.381  4.55813e-13
       14761.134  4.56042e-13
       14775.902  4.56104e-13
       14790.686  4.56938e-13
       14805.483  4.56665e-13
       14820.297  4.54155e-13
       14835.125  4.52815e-13
       14849.967  4.53376e-13
       14864.824  4.49175e-13
       14879.696  4.43267e-13
       14894.584  4.45911e-13
       14909.486  4.48560e-13
       14924.403  4.49473e-13
       14939.335  4.47674e-13
       14954.281  4.43486e-13
       14969.243  4.41925e-13
       14984.220  4.42079e-13
       14999.211  4.41778e-13
       15014.218  4.35662e-13
       15029.239  4.23887e-13
       15044.276  4.19367e-13
       15059.328  4.25609e-13
       15074.395  4.34472e-13
       15089.478  4.37019e-13
       15104.574  4.37151e-13
       15119.687  4.35215e-13
       15134.813  4.32460e-13
       15149.956  4.31379e-13
       15165.113  4.30776e-13
       15180.285  4.30771e-13
       15195.474  4.29616e-13
       15210.676  4.26965e-13
       15225.895  4.26087e-13
       15241.129  4.25923e-13
       15256.377  4.25667e-13
       15271.642  4.25841e-13
       15286.920  4.22447e-13
       15302.216  4.19206e-13
       15317.524  4.21878e-13
       15332.851  4.21395e-13
       15348.191  4.20446e-13
       15363.546  4.20760e-13
       15378.917  4.17731e-13
       15394.305  4.13217e-13
       15409.706  4.12706e-13
       15425.123  4.14523e-13
       15440.557  4.14736e-13
       15456.005  4.14025e-13
       15471.469  4.11369e-13
       15486.947  4.08322e-13
       15502.442  4.07443e-13
       15517.953  4.07464e-13
       15533.478  4.03872e-13
       15549.020  3.99849e-13
       15564.576  4.00158e-13
       15580.148  4.00883e-13
       15595.736  3.98167e-13
       15611.340  3.98064e-13
       15626.959  3.98340e-13
       15642.594  3.98021e-13
       15658.244  3.96000e-13
       15673.910  3.91081e-13
       15689.592  3.87457e-13
       15705.289  3.90009e-13
       15721.002  3.92648e-13
       15736.730  3.87737e-13
       15752.476  3.78963e-13
       15768.236  3.73751e-13
       15784.013  3.78780e-13
       15799.804  3.85255e-13
       15815.611  3.83645e-13
       15831.436  3.79291e-13
       15847.274  3.79275e-13
       15863.130  3.76317e-13
       15879.000  3.63680e-13
       15894.888  3.52678e-13
       15910.791  3.59154e-13
       15926.709  3.71463e-13
       15942.645  3.77101e-13
       15958.595  3.76133e-13
       15974.561  3.75942e-13
       15990.543  3.76194e-13
       16006.542  3.72466e-13
       16022.557  3.71290e-13
       16038.588  3.70884e-13
       16054.634  3.69535e-13
       16070.695  3.68107e-13
       16086.775  3.63502e-13
       16102.870  3.54548e-13
       16118.980  3.52881e-13
       16135.107  3.59615e-13
       16151.251  3.62422e-13
       16167.410  3.60220e-13
       16183.585  3.59707e-13
       16199.777  3.57208e-13
       16215.985  3.56182e-13
       16232.209  3.58521e-13
       16248.449  3.60457e-13
       16264.706  3.63776e-13
       16280.979  3.64747e-13
       16297.268  3.62492e-13
       16313.573  3.58803e-13
       16329.895  3.56060e-13
       16346.232  3.55926e-13
       16362.588  3.52172e-13
       16378.959  3.41979e-13
       16395.346  3.31156e-13
       16411.750  3.27304e-13
       16428.168  3.33846e-13
       16444.605  3.40512e-13
       16461.059  3.44524e-13
       16477.527  3.44651e-13
       16494.012  3.43142e-13
       16510.516  3.41630e-13
       16527.033  3.39994e-13
       16543.570  3.39893e-13
       16560.121  3.39975e-13
       16576.689  3.40609e-13
       16593.273  3.40455e-13
       16609.875  3.40248e-13
       16626.494  3.38795e-13
       16643.129  3.36061e-13
       16659.781  3.33135e-13
       16676.449  3.32014e-13
       16693.133  3.32420e-13
       16709.836  3.31106e-13
       16726.553  3.28042e-13
       16743.287  3.25642e-13
       16760.039  3.22570e-13
       16776.809  3.19981e-13
       16793.592  3.10937e-13
       16810.395  3.01875e-13
       16827.213  3.06572e-13
       16844.049  3.14448e-13
       16860.902  3.16278e-13
       16877.771  3.16533e-13
       16894.656  3.17182e-13
       16911.561  3.18991e-13
       16928.480  3.19300e-13
       16945.418  3.17930e-13
       16962.371  3.15915e-13
       16979.342  3.14651e-13
       16996.330  3.12286e-13
       17013.336  3.09446e-13
       17030.355  3.08985e-13
       17047.395  3.09243e-13
       17064.451  3.09292e-13
       17081.523  3.08922e-13
       17098.615  3.06269e-13
       17115.721  3.03481e-13
       17132.846  3.04952e-13
       17149.986  3.05258e-13
       17167.145  3.04279e-13
       17184.320  3.03443e-13
       17201.514  3.00898e-13
       17218.725  2.97504e-13
       17235.951  2.95375e-13
       17253.195  2.95406e-13
       17270.457  2.94432e-13
       17287.736  2.92636e-13
       17305.033  2.90540e-13
       17322.346  2.85155e-13
       17339.678  2.77547e-13
       17357.027  2.68949e-13
       17374.393  2.68442e-13
       17391.775  2.77683e-13
       17409.176  2.82964e-13
       17426.594  2.84323e-13
       17444.027  2.82936e-13
       17461.480  2.80599e-13
       17478.951  2.80609e-13
       17496.439  2.81220e-13
       17513.943  2.80804e-13
       17531.467  2.80468e-13
       17549.006  2.79925e-13
       17566.564  2.78712e-13
       17584.141  2.77453e-13
       17601.734  2.75280e-13
       17619.344  2.72682e-13
       17636.971  2.73446e-13
       17654.617  2.74967e-13
       17672.281  2.74143e-13
       17689.963  2.71513e-13
       17707.660  2.68815e-13
       17725.377  2.67154e-13
       17743.111  2.66833e-13
       17760.863  2.66115e-13
       17778.633  2.65524e-13
       17796.422  2.65483e-13
       17814.227  2.63838e-13
       17832.049  2.61853e-13
       17849.891  2.61462e-13
       17867.750  2.62652e-13
       17885.625  2.63134e-13
       17903.520  2.61644e-13
       17921.432  2.58944e-13
       17939.363  2.56993e-13
       17957.311  2.56268e-13
       17975.277  2.55044e-13
       17993.262  2.52731e-13
       18011.264  2.50445e-13
       18029.283  2.50030e-13
       18047.322  2.50745e-13
       18065.379  2.50499e-13
       18083.453  2.48696e-13
       18101.545  2.46741e-13
       18119.656  2.45887e-13
       18137.785  2.43263e-13
       18155.932  2.35559e-13
       18174.098  2.26253e-13
       18192.279  2.28543e-13
       18210.480  2.36501e-13
       18228.699  2.40227e-13
       18246.938  2.42478e-13
       18265.193  2.42430e-13
       18283.469  2.40697e-13
       18301.762  2.40454e-13
       18320.072  2.39776e-13
       18338.400  2.38562e-13
       18356.750  2.36304e-13
       18375.115  2.34188e-13
       18393.498  2.33732e-13
       18411.902  2.31570e-13
       18430.322  2.29831e-13
       18448.762  2.29854e-13
       18467.221  2.28716e-13
       18485.697  2.28941e-13
       18504.191  2.29800e-13
       18522.705  2.29022e-13
       18541.236  2.27987e-13
       18559.787  2.26900e-13
       18578.357  2.26528e-13
       18596.945  2.26174e-13
       18615.551  2.26069e-13
       18634.176  2.25336e-13
       18652.818  2.22874e-13
       18671.480  2.20245e-13
       18690.160  2.19992e-13
       18708.861  2.18543e-13
       18727.580  2.11555e-13
       18746.316  2.00674e-13
       18765.072  1.99886e-13
       18783.846  2.09630e-13
       18802.639  2.15067e-13
       18821.451  2.15824e-13
       18840.281  2.15219e-13
       18859.133  2.14224e-13
       18878.000  2.13855e-13
       18896.887  2.13126e-13
       18915.795  2.11753e-13
       18934.719  2.09969e-13
       18953.664  2.07860e-13
       18972.627  2.08018e-13
       18991.609  2.09678e-13
       19010.609  2.10167e-13
       19029.631  2.09362e-13
       19048.670  2.08758e-13
       19067.727  2.08557e-13
       19086.805  2.07905e-13
       19105.900  2.06785e-13
       19125.016  2.05694e-13
       19144.150  2.05646e-13
       19163.305  2.05106e-13
       19182.477  2.03989e-13
       19201.668  2.02888e-13
       19220.881  2.02283e-13
       19240.111  2.01690e-13
       19259.359  2.00451e-13
       19278.629  1.98481e-13
       19297.918  1.97089e-13
       19317.225  1.96292e-13
       19336.553  1.96117e-13
       19355.898  1.96212e-13
       19375.264  1.94919e-13
       19394.648  1.92159e-13
       19414.053  1.89062e-13
       19433.477  1.81104e-13
       19452.920  1.75706e-13
       19472.383  1.81330e-13
       19491.865  1.85784e-13
       19511.365  1.86417e-13
       19530.887  1.88826e-13
       19550.428  1.90246e-13
       19569.988  1.89933e-13
       19589.568  1.89014e-13
       19609.168  1.87739e-13
       19628.787  1.86331e-13
       19648.426  1.85880e-13
       19668.084  1.86424e-13
       19687.762  1.86554e-13
       19707.459  1.84800e-13
       19727.176  1.82278e-13
       19746.912  1.82525e-13
       19766.670  1.82137e-13
       19786.447  1.80418e-13
       19806.242  1.80426e-13
       19826.059  1.80427e-13
       19845.895  1.79044e-13
       19865.750  1.78111e-13
       19885.627  1.79139e-13
       19905.521  1.78818e-13
       19925.438  1.76701e-13
       19945.373  1.75867e-13
       19965.328  1.75881e-13
       19985.303  1.75785e-13
       20005.297  1.75650e-13
       20025.314  1.74722e-13
       20045.350  1.74022e-13
       20065.404  1.73708e-13
       20085.480  1.73426e-13
       20105.574  1.72967e-13
       20125.691  1.72542e-13
       20145.826  1.72042e-13
       20165.982  1.71412e-13
       20186.158  1.70608e-13
       20206.355  1.69616e-13
       20226.570  1.68818e-13
       20246.809  1.68274e-13
       20267.064  1.67676e-13
       20287.342  1.66461e-13
       20307.639  1.65838e-13
       20327.957  1.65898e-13
       20348.295  1.65269e-13
       20368.654  1.64117e-13
       20389.031  1.63370e-13
       20409.432  1.63660e-13
       20429.852  1.63478e-13
       20450.291  1.62801e-13
       20470.752  1.62043e-13
       20491.232  1.61283e-13
       20511.734  1.60603e-13
       20532.256  1.60198e-13
       20552.797  1.59850e-13
       20573.361  1.59128e-13
       20593.945  1.57937e-13
       20614.549  1.56941e-13
       20635.174  1.56606e-13
       20655.820  1.56447e-13
       20676.484  1.55660e-13
       20697.172  1.54535e-13
       20717.881  1.53944e-13
       20738.609  1.53939e-13
       20759.357  1.54021e-13
       20780.127  1.53593e-13
       20800.918  1.52686e-13
       20821.729  1.51953e-13
       20842.561  1.51388e-13
       20863.414  1.51145e-13
       20884.287  1.50666e-13
       20905.184  1.49422e-13
       20926.098  1.48158e-13
       20947.033  1.47910e-13
       20967.990  1.48089e-13
       20988.969  1.47930e-13
       21009.971  1.47359e-13
       21030.988  1.46526e-13
       21052.031  1.45116e-13
       21073.094  1.44331e-13
       21094.178  1.44574e-13
       21115.283  1.44518e-13
       21136.408  1.43925e-13
       21157.557  1.42944e-13
       21178.723  1.42210e-13
       21199.912  1.41570e-13
       21221.123  1.41213e-13
       21242.354  1.41064e-13
       21263.609  1.40747e-13
       21284.883  1.40518e-13
       21306.176  1.40193e-13
       21327.496  1.39576e-13
       21348.832  1.38410e-13
       21370.191  1.37718e-13
       21391.572  1.37824e-13
       21412.973  1.37487e-13
       21434.398  1.36640e-13
       21455.842  1.36064e-13
       21477.309  1.35747e-13
       21498.799  1.35331e-13
       21520.309  1.34856e-13
       21541.838  1.34355e-13
       21563.391  1.33840e-13
       21584.965  1.33080e-13
       21606.561  1.31675e-13
       21628.180  1.28564e-13
       21649.816  1.23445e-13
       21671.477  1.22838e-13
       21693.160  1.26997e-13
       21714.863  1.29195e-13
       21736.590  1.29561e-13
       21758.338  1.29078e-13
       21780.107  1.28239e-13
       21801.896  1.27850e-13
       21823.711  1.27422e-13
       21845.545  1.27246e-13
       21867.402  1.26638e-13
       21889.279  1.25884e-13
       21911.180  1.26125e-13
       21933.102  1.26086e-13
       21955.047  1.25653e-13
       21977.012  1.25186e-13
       21999.000  1.24722e-13
       22021.012  1.24246e-13
       22043.043  1.23172e-13
       22065.096  1.21678e-13
       22087.172  1.21623e-13
       22109.270  1.22145e-13
       22131.389  1.22005e-13
       22153.533  1.21559e-13
       22175.699  1.21188e-13
       22197.883  1.20832e-13
       22220.094  1.20385e-13
       22242.324  1.19687e-13
       22264.578  1.18956e-13
       22286.854  1.18813e-13
       22309.150  1.18655e-13
       22331.473  1.18246e-13
       22353.812  1.17630e-13
       22376.180  1.16717e-13
       22398.566  1.16194e-13
       22420.977  1.16073e-13
       22443.408  1.15806e-13
       22465.861  1.15288e-13
       22488.340  1.14733e-13
       22510.840  1.14247e-13
       22533.361  1.13554e-13
       22555.906  1.13082e-13
       22578.475  1.12911e-13
       22601.062  1.12260e-13
       22623.674  1.11136e-13
       22646.311  1.10762e-13
       22668.967  1.10880e-13
       22691.648  1.10974e-13
       22714.352  1.10652e-13
       22737.078  1.10311e-13
       22759.824  1.09942e-13
       22782.596  1.09415e-13
       22805.391  1.08535e-13
       22828.207  1.08150e-13
       22851.047  1.08183e-13
       22873.908  1.07937e-13
       22896.795  1.07462e-13
       22919.703  1.06848e-13
       22942.635  1.06176e-13
       22965.588  1.05863e-13
       22988.564  1.05743e-13
       23011.564  1.05543e-13
       23034.588  1.05199e-13
       23057.635  1.04741e-13
       23080.703  1.04383e-13
       23103.797  1.04071e-13
       23126.912  1.03643e-13
       23150.049  1.03072e-13
       23173.211  1.02695e-13
       23196.396  1.02390e-13
       23219.605  1.01682e-13
       23242.834  1.01043e-13
       23266.090  1.00892e-13
       23289.367  1.00700e-13
       23312.668  1.00345e-13
       23335.992  9.98660e-14
       23359.340  9.93412e-14
       23382.711  9.89906e-14
       23406.105  9.89490e-14
       23429.523  9.88111e-14
       23452.965  9.84927e-14
       23476.428  9.81627e-14
       23499.918  9.76021e-14
       23523.428  9.67678e-14
       23546.963  9.62211e-14
       23570.523  9.58760e-14
       23594.104  9.57822e-14
       23617.711  9.57563e-14
       23641.340  9.55174e-14
       23664.992  9.51461e-14
       23688.670  9.46783e-14
       23712.371  9.43780e-14
       23736.094  9.41914e-14
       23759.842  9.39011e-14
       23783.613  9.35004e-14
       23807.410  9.28600e-14
       23831.229  9.17441e-14
       23855.070  9.09343e-14
       23878.938  9.11115e-14
       23902.830  9.12864e-14
       23926.746  9.10676e-14
       23950.684  9.07478e-14
       23974.646  9.04867e-14
       23998.633  9.02558e-14
       24022.645  8.99940e-14
       24046.678  8.96640e-14
       24070.738  8.92996e-14
       24094.820  8.89807e-14
       24118.926  8.85453e-14
       24143.057  8.78665e-14
       24167.211  8.75090e-14
       24191.391  8.74269e-14
       24215.596  8.72157e-14
       24239.822  8.68578e-14
       24264.074  8.65551e-14
       24288.350  8.63228e-14
       24312.652  8.59947e-14
       24336.975  8.55492e-14
       24361.326  8.51362e-14
       24385.699  8.49112e-14
       24410.096  8.47805e-14
       24434.520  8.44278e-14
       24458.965  8.38458e-14
       24483.436  8.33762e-14
       24507.932  8.31060e-14
       24532.451  8.26558e-14
       24556.996  8.20348e-14
       24581.564  8.19226e-14
       24606.160  8.20300e-14
       24630.779  8.18041e-14
       24655.420  8.15819e-14
       24680.088  8.13549e-14
       24704.781  8.10007e-14
       24729.496  8.05550e-14
       24754.240  8.03194e-14
       24779.006  7.97540e-14
       24803.799  7.87449e-14
       24828.613  7.84178e-14
       24853.455  7.83337e-14
       24878.320  7.82064e-14
       24903.213  7.83719e-14
       24928.127  7.81991e-14
       24953.068  7.79114e-14
       24978.031  7.76934e-14
